 => TITLE: 
 => Data file name: C:\Users\stefano\Nextcloud2\uni\master-thesis\XRD\data\G104\G104--5-40-0.01-1000ms.xy
 => Instrm        :    1
 => Lambda(1&2)   :   1.54060  1.54060
 => Numb.of.points:      2951
 => Numb.of.peaks :         8
    2Theta     Yobs     Ycalc  Yobs-Ycal    Backg    Bragg     Posr  Intensity   FWHM    Eta
    6.0086     23.60     25.24    -30.29     24.00   18.6459     -3.49     141.95  0.8141  0.1534
    6.0187     23.41     25.24    -30.48     24.00   20.4716     -3.49      66.15  1.3686  0.1534
    6.0289     23.25     25.25    -30.64     24.00   22.4932     -3.49     106.48  1.1365  0.1534
    6.0391     23.54     25.25    -30.36     24.00   28.5305     -3.49      25.92  0.9205  0.1534
    6.0492     23.79     25.25    -30.11     24.00   29.0192     -3.49      67.31  3.6789  0.1534
    6.0594     23.55     25.26    -30.35     24.00   32.9847     -3.49      15.31  1.8874  0.1534
    6.0696     23.67     25.26    -30.24     24.00   17.4551     -3.49      40.29  1.9404  0.1534
    6.0797     23.54     25.26    -30.37     24.00   19.6785     -3.49     817.71  9.6439  0.1534
    6.0899     23.49     25.27    -30.42     24.00
    6.1001     23.78     25.27    -30.14     24.00
    6.1102     23.43     25.28    -30.49     24.00
    6.1204     23.30     25.28    -30.63     24.00
    6.1306     23.27     25.28    -30.66     24.00
    6.1407     23.95     25.29    -29.98     24.00
    6.1509     22.48     25.29    -31.46     24.00
    6.1611     23.28     25.29    -30.66     24.00
    6.1712     23.31     25.30    -30.63     24.00
    6.1814     23.02     25.30    -30.93     24.00
    6.1915     23.37     25.31    -30.58     24.00
    6.2017     23.00     25.31    -30.95     24.00
    6.2119     22.69     25.31    -31.27     24.00
    6.2220     23.25     25.32    -30.71     24.00
    6.2322     22.74     25.32    -31.23     24.00
    6.2424     23.20     25.32    -30.77     24.00
    6.2525     23.38     25.33    -30.59     24.00
    6.2627     22.68     25.33    -31.30     24.00
    6.2729     23.12     25.34    -30.86     24.00
    6.2830     22.99     25.34    -31.00     24.00
    6.2932     22.10     25.34    -31.89     24.00
    6.3034     22.79     25.35    -31.20     24.00
    6.3135     21.96     25.35    -32.04     24.00
    6.3237     23.51     25.36    -30.49     24.00
    6.3338     23.04     25.36    -30.97     24.00
    6.3440     22.06     25.36    -31.95     24.00
    6.3542     22.32     25.37    -31.69     24.00
    6.3643     22.34     25.37    -31.68     24.00
    6.3745     21.66     25.38    -32.36     24.00
    6.3847     22.23     25.38    -31.80     24.00
    6.3948     23.51     25.39    -30.52     24.00
    6.4050     22.71     25.39    -31.33     24.00
    6.4152     22.62     25.39    -31.42     24.00
    6.4253     22.40     25.40    -31.64     24.00
    6.4355     22.89     25.40    -31.16     24.00
    6.4457     22.93     25.41    -31.12     24.00
    6.4558     23.21     25.41    -30.85     24.00
    6.4660     23.37     25.42    -30.69     24.00
    6.4762     22.77     25.42    -31.30     24.00
    6.4863     23.15     25.42    -30.92     24.00
    6.4965     23.40     25.43    -30.67     24.00
    6.5066     22.84     25.43    -31.24     24.00
    6.5168     22.55     25.44    -31.53     24.00
    6.5270     23.10     25.44    -30.99     24.00
    6.5371     22.46     25.45    -31.63     24.00
    6.5473     23.01     25.45    -31.09     24.00
    6.5575     23.58     25.46    -30.52     24.00
    6.5676     23.68     25.46    -30.43     24.00
    6.5778     22.99     25.47    -31.12     24.00
    6.5880     23.52     25.47    -30.60     24.00
    6.5981     22.86     25.47    -31.26     24.00
    6.6083     23.83     25.48    -30.30     24.00
    6.6185     23.23     25.48    -30.90     24.00
    6.6286     22.68     25.49    -31.45     24.00
    6.6388     22.76     25.49    -31.38     24.00
    6.6489     24.25     25.50    -29.89     24.00
    6.6591     21.93     25.50    -32.22     24.00
    6.6693     23.70     25.51    -30.45     24.00
    6.6794     23.09     25.51    -31.07     24.00
    6.6896     23.21     25.52    -30.95     24.00
    6.6998     23.22     25.52    -30.95     24.00
    6.7099     22.89     25.53    -31.28     24.00
    6.7201     22.51     25.53    -31.67     24.00
    6.7303     23.02     25.54    -31.16     24.00
    6.7404     23.95     25.54    -30.24     24.00
    6.7506     23.16     25.55    -31.03     24.00
    6.7608     23.13     25.55    -31.07     24.00
    6.7709     23.45     25.56    -30.75     24.00
    6.7811     22.51     25.56    -31.70     24.00
    6.7913     23.44     25.57    -30.78     24.00
    6.8014     23.28     25.57    -30.94     24.00
    6.8116     23.37     25.58    -30.86     24.00
    6.8217     23.51     25.59    -30.72     24.00
    6.8319     23.16     25.59    -31.08     24.00
    6.8421     23.68     25.60    -30.56     24.00
    6.8522     23.41     25.60    -30.84     24.00
    6.8624     23.48     25.61    -30.77     24.00
    6.8726     23.49     25.61    -30.77     24.00
    6.8827     23.55     25.62    -30.71     24.00
    6.8929     23.96     25.62    -30.31     24.00
    6.9031     22.62     25.63    -31.65     24.00
    6.9132     23.60     25.63    -30.68     24.00
    6.9234     23.67     25.64    -30.62     24.00
    6.9336     23.63     25.65    -30.66     24.00
    6.9437     23.46     25.65    -30.84     24.00
    6.9539     23.03     25.66    -31.27     24.00
    6.9640     23.46     25.66    -30.85     24.00
    6.9742     23.13     25.67    -31.18     24.00
    6.9844     23.80     25.67    -30.52     24.00
    6.9945     23.62     25.68    -30.71     24.00
    7.0047     24.31     25.69    -30.02     24.00
    7.0149     23.77     25.69    -30.57     24.00
    7.0250     22.82     25.70    -31.52     24.00
    7.0352     23.93     25.70    -30.42     24.00
    7.0454     24.55     25.71    -29.81     24.00
    7.0555     23.20     25.72    -31.16     24.00
    7.0657     23.62     25.72    -30.75     24.00
    7.0759     23.21     25.73    -31.16     24.00
    7.0860     23.88     25.73    -30.50     24.00
    7.0962     23.84     25.74    -30.55     24.00
    7.1064     24.13     25.75    -30.26     24.00
    7.1165     22.98     25.75    -31.42     24.00
    7.1267     23.36     25.76    -31.05     24.00
    7.1368     23.99     25.77    -30.42     24.00
    7.1470     24.07     25.77    -30.35     24.00
    7.1572     24.01     25.78    -30.41     24.00
    7.1673     23.85     25.78    -30.58     24.00
    7.1775     24.07     25.79    -30.37     24.00
    7.1877     23.90     25.80    -30.54     24.00
    7.1978     24.39     25.80    -30.06     24.00
    7.2080     23.79     25.81    -30.67     24.00
    7.2182     24.65     25.82    -29.81     24.00
    7.2283     24.55     25.82    -29.92     24.00
    7.2385     23.64     25.83    -30.84     24.00
    7.2487     24.02     25.84    -30.46     24.00
    7.2588     24.35     25.84    -30.14     24.00
    7.2690     23.89     25.85    -30.61     24.00
    7.2791     24.11     25.86    -30.39     24.00
    7.2893     24.65     25.86    -29.86     24.00
    7.2995     24.40     25.87    -30.12     24.00
    7.3096     24.88     25.88    -29.64     24.00
    7.3198     24.90     25.89    -29.63     24.00
    7.3300     24.02     25.89    -30.52     24.00
    7.3401     24.05     25.90    -30.50     24.00
    7.3503     24.12     25.91    -30.43     24.00
    7.3605     23.71     25.91    -30.85     24.00
    7.3706     24.74     25.92    -29.83     24.00
    7.3808     24.70     25.93    -29.87     24.00
    7.3910     24.96     25.94    -29.62     24.00
    7.4011     25.19     25.94    -29.40     24.00
    7.4113     24.19     25.95    -30.41     24.00
    7.4215     23.45     25.96    -31.15     24.00
    7.4316     24.29     25.97    -30.32     24.00
    7.4418     24.35     25.97    -30.27     24.00
    7.4519     24.47     25.98    -30.16     24.00
    7.4621     24.63     25.99    -30.00     24.00
    7.4723     23.88     26.00    -30.76     24.00
    7.4824     24.43     26.00    -30.22     24.00
    7.4926     23.68     26.01    -30.98     24.00
    7.5028     25.14     26.02    -29.52     24.00
    7.5129     24.62     26.03    -30.05     24.00
    7.5231     24.68     26.03    -30.00     24.00
    7.5333     25.57     26.04    -29.12     24.00
    7.5434     24.26     26.05    -30.44     24.00
    7.5536     24.76     26.06    -29.94     24.00
    7.5638     25.20     26.07    -29.51     24.00
    7.5739     24.80     26.07    -29.92     24.00
    7.5841     24.47     26.08    -30.26     24.00
    7.5942     24.30     26.09    -30.44     24.00
    7.6044     24.58     26.10    -30.16     24.00
    7.6146     25.42     26.11    -29.33     24.00
    7.6247     25.45     26.11    -29.31     24.00
    7.6349     24.28     26.12    -30.49     24.00
    7.6451     24.87     26.13    -29.91     24.00
    7.6552     25.31     26.14    -29.48     24.00
    7.6654     25.45     26.15    -29.34     24.00
    7.6756     25.01     26.16    -29.79     24.00
    7.6857     25.34     26.16    -29.47     24.00
    7.6959     24.54     26.17    -30.28     24.00
    7.7061     24.60     26.18    -30.23     24.00
    7.7162     25.60     26.19    -29.24     24.00
    7.7264     25.27     26.20    -29.58     24.00
    7.7365     25.77     26.21    -29.08     24.00
    7.7467     24.91     26.22    -29.95     24.00
    7.7569     24.46     26.23    -30.41     24.00
    7.7670     25.01     26.23    -29.87     24.00
    7.7772     25.35     26.24    -29.54     24.00
    7.7874     25.46     26.25    -29.44     24.00
    7.7975     25.00     26.26    -29.91     24.00
    7.8077     25.01     26.27    -29.91     24.00
    7.8179     24.61     26.28    -30.32     24.00
    7.8280     25.48     26.29    -29.46     24.00
    7.8382     26.05     26.30    -28.89     24.00
    7.8484     25.49     26.31    -29.46     24.00
    7.8585     24.94     26.32    -30.02     24.00
    7.8687     25.88     26.33    -29.09     24.00
    7.8789     25.60     26.34    -29.38     24.00
    7.8890     24.87     26.35    -30.12     24.00
    7.8992     25.20     26.36    -29.80     24.00
    7.9093     25.05     26.36    -29.96     24.00
    7.9195     25.35     26.37    -29.67     24.00
    7.9297     25.74     26.38    -29.29     24.00
    7.9398     26.48     26.39    -28.56     24.00
    7.9500     25.94     26.40    -29.11     24.00
    7.9602     26.41     26.41    -28.65     24.00
    7.9703     25.89     26.42    -29.18     24.00
    7.9805     25.57     26.43    -29.51     24.00
    7.9907     26.16     26.44    -28.93     24.00
    8.0008     26.47     26.45    -28.63     24.00
    8.0110     25.49     26.46    -29.62     24.00
    8.0212     26.33     26.47    -28.79     24.00
    8.0313     25.80     26.48    -29.33     24.00
    8.0415     26.12     26.49    -29.02     24.00
    8.0516     26.15     26.51    -29.00     24.00
    8.0618     25.54     26.52    -29.62     24.00
    8.0720     25.94     26.53    -29.23     24.00
    8.0821     26.38     26.54    -28.80     24.00
    8.0923     25.61     26.55    -29.58     24.00
    8.1025     25.93     26.56    -29.27     24.00
    8.1126     26.69     26.57    -28.52     24.00
    8.1228     25.91     26.58    -29.32     24.00
    8.1330     25.71     26.59    -29.53     24.00
    8.1431     26.18     26.60    -29.07     24.00
    8.1533     26.55     26.61    -28.71     24.00
    8.1635     26.01     26.62    -29.26     24.00
    8.1736     26.91     26.63    -28.37     24.00
    8.1838     26.16     26.65    -29.13     24.00
    8.1940     27.05     26.66    -28.25     24.00
    8.2041     26.32     26.67    -28.99     24.00
    8.2143     26.63     26.68    -28.70     24.00
    8.2244     26.05     26.69    -29.29     24.00
    8.2346     26.77     26.70    -28.58     24.00
    8.2448     26.40     26.71    -28.96     24.00
    8.2549     26.87     26.73    -28.50     24.00
    8.2651     26.87     26.74    -28.51     24.00
    8.2753     26.43     26.75    -28.96     24.00
    8.2854     27.32     26.76    -28.09     24.00
    8.2956     26.66     26.77    -28.76     24.00
    8.3058     27.37     26.78    -28.06     24.00
    8.3159     26.56     26.80    -28.88     24.00
    8.3261     27.23     26.81    -28.22     24.00
    8.3363     25.96     26.82    -29.51     24.00
    8.3464     26.57     26.83    -28.91     24.00
    8.3566     28.00     26.84    -27.49     24.00
    8.3667     26.66     26.86    -28.84     24.00
    8.3769     27.59     26.87    -27.92     24.00
    8.3871     26.79     26.88    -28.74     24.00
    8.3972     26.50     26.89    -29.04     24.00
    8.4074     25.93     26.91    -29.62     24.00
    8.4176     26.72     26.92    -28.84     24.00
    8.4277     26.70     26.93    -28.88     24.00
    8.4379     26.48     26.94    -29.11     24.00
    8.4481     26.86     26.96    -28.74     24.00
    8.4582     27.38     26.97    -28.24     24.00
    8.4684     27.61     26.98    -28.02     24.00
    8.4786     26.89     27.00    -28.75     24.00
    8.4887     27.12     27.01    -28.53     24.00
    8.4989     27.20     27.02    -28.47     24.00
    8.5091     27.77     27.04    -27.91     24.00
    8.5192     27.77     27.05    -27.92     24.00
    8.5294     27.40     27.06    -28.31     24.00
    8.5395     27.50     27.08    -28.22     24.00
    8.5497     27.46     27.09    -28.27     24.00
    8.5599     27.21     27.10    -28.54     24.00
    8.5700     27.51     27.12    -28.25     24.00
    8.5802     27.22     27.13    -28.56     24.00
    8.5904     27.51     27.14    -28.28     24.00
    8.6005     27.16     27.16    -28.64     24.00
    8.6107     28.41     27.17    -27.41     24.00
    8.6209     27.69     27.19    -28.14     24.00
    8.6310     28.67     27.20    -27.18     24.00
    8.6412     27.99     27.21    -27.87     24.00
    8.6514     28.02     27.23    -27.85     24.00
    8.6615     27.35     27.24    -28.54     24.00
    8.6717     27.02     27.26    -28.88     24.00
    8.6818     27.21     27.27    -28.71     24.00
    8.6920     28.35     27.28    -27.58     24.00
    8.7022     28.76     27.30    -27.19     24.00
    8.7123     28.36     27.31    -27.60     24.00
    8.7225     28.98     27.33    -26.99     24.00
    8.7327     27.15     27.34    -28.84     24.00
    8.7428     28.61     27.36    -27.39     24.00
    8.7530     28.42     27.37    -27.60     24.00
    8.7632     26.96     27.39    -29.07     24.00
    8.7733     27.76     27.40    -28.29     24.00
    8.7835     28.38     27.42    -27.69     24.00
    8.7937     28.68     27.43    -27.40     24.00
    8.8038     28.60     27.45    -27.50     24.00
    8.8140     28.10     27.47    -28.01     24.00
    8.8242     28.35     27.48    -27.78     24.00
    8.8343     28.54     27.50    -27.60     24.00
    8.8445     27.81     27.51    -28.35     24.00
    8.8546     28.79     27.53    -27.38     24.00
    8.8648     28.42     27.54    -27.77     24.00
    8.8750     28.08     27.56    -28.13     24.00
    8.8851     28.74     27.58    -27.48     24.00
    8.8953     28.77     27.59    -27.47     24.00
    8.9055     28.88     27.61    -27.37     24.00
    8.9156     27.57     27.62    -28.70     24.00
    8.9258     28.27     27.64    -28.02     24.00
    8.9360     28.48     27.66    -27.82     24.00
    8.9461     29.63     27.67    -26.69     24.00
    8.9563     29.03     27.69    -27.31     24.00
    8.9665     29.15     27.71    -27.20     24.00
    8.9766     28.89     27.72    -27.48     24.00
    8.9868     29.22     27.74    -27.17     24.00
    8.9969     29.03     27.76    -27.37     24.00
    9.0071     28.09     27.77    -28.33     24.00
    9.0173     28.76     27.79    -27.68     24.00
    9.0274     28.91     27.81    -27.54     24.00
    9.0376     28.50     27.83    -27.97     24.00
    9.0478     28.64     27.84    -27.85     24.00
    9.0579     29.30     27.86    -27.21     24.00
    9.0681     28.38     27.88    -28.14     24.00
    9.0783     29.18     27.90    -27.36     24.00
    9.0884     29.15     27.91    -27.41     24.00
    9.0986     28.21     27.93    -28.37     24.00
    9.1088     29.42     27.95    -27.17     24.00
    9.1189     28.60     27.97    -28.01     24.00
    9.1291     28.55     27.98    -28.08     24.00
    9.1393     29.68     28.00    -26.97     24.00
    9.1494     29.22     28.02    -27.45     24.00
    9.1596     28.79     28.04    -27.90     24.00
    9.1697     29.15     28.06    -27.55     24.00
    9.1799     29.03     28.08    -27.69     24.00
    9.1901     28.66     28.10    -28.08     24.00
    9.2002     29.40     28.11    -27.36     24.00
    9.2104     28.38     28.13    -28.40     24.00
    9.2206     28.71     28.15    -28.09     24.00
    9.2307     29.26     28.17    -27.56     24.00
    9.2409     29.65     28.19    -27.19     24.00
    9.2511     29.79     28.21    -27.06     24.00
    9.2612     29.62     28.23    -27.25     24.00
    9.2714     29.78     28.25    -27.11     24.00
    9.2816     29.32     28.27    -27.59     24.00
    9.2917     30.18     28.29    -26.75     24.00
    9.3019     30.23     28.31    -26.72     24.00
    9.3120     29.87     28.33    -27.10     24.00
    9.3222     29.48     28.35    -27.51     24.00
    9.3324     29.84     28.37    -27.17     24.00
    9.3425     29.73     28.39    -27.30     24.00
    9.3527     29.38     28.41    -27.67     24.00
    9.3629     29.01     28.43    -28.06     24.00
    9.3730     30.04     28.45    -27.05     24.00
    9.3832     30.08     28.47    -27.03     24.00
    9.3934     30.00     28.49    -27.13     24.00
    9.4035     29.50     28.51    -27.65     24.00
    9.4137     29.88     28.53    -27.29     24.00
    9.4239     30.76     28.55    -26.44     24.00
    9.4340     29.62     28.57    -27.60     24.00
    9.4442     29.70     28.59    -27.54     24.00
    9.4544     30.41     28.61    -26.85     24.00
    9.4645     30.09     28.63    -27.19     24.00
    9.4747     30.84     28.66    -26.46     24.00
    9.4848     29.92     28.68    -27.40     24.00
    9.4950     29.40     28.70    -27.94     24.00
    9.5052     29.93     28.72    -27.44     24.00
    9.5153     30.23     28.74    -27.16     24.00
    9.5255     29.82     28.76    -27.59     24.00
    9.5357     30.20     28.79    -27.23     24.00
    9.5458     30.37     28.81    -27.08     24.00
    9.5560     30.03     28.83    -27.45     24.00
    9.5662     29.97     28.85    -27.53     24.00
    9.5763     30.07     28.87    -27.45     24.00
    9.5865     29.65     28.90    -27.89     24.00
    9.5967     30.38     28.92    -27.19     24.00
    9.6068     30.79     28.94    -26.80     24.00
    9.6170     30.41     28.97    -27.20     24.00
    9.6271     30.26     28.99    -27.37     24.00
    9.6373     31.10     29.01    -26.56     24.00
    9.6475     30.90     29.03    -26.78     24.00
    9.6576     30.32     29.06    -27.38     24.00
    9.6678     30.57     29.08    -27.16     24.00
    9.6780     30.38     29.10    -27.37     24.00
    9.6881     30.35     29.13    -27.42     24.00
    9.6983     30.73     29.15    -27.07     24.00
    9.7085     30.54     29.18    -27.28     24.00
    9.7186     30.50     29.20    -27.35     24.00
    9.7288     31.07     29.22    -26.80     24.00
    9.7390     31.04     29.25    -26.85     24.00
    9.7491     31.06     29.27    -26.86     24.00
    9.7593     30.89     29.30    -27.05     24.00
    9.7694     30.52     29.32    -27.45     24.00
    9.7796     30.34     29.35    -27.65     24.00
    9.7898     31.29     29.37    -26.73     24.00
    9.7999     29.79     29.40    -28.25     24.00
    9.8101     30.54     29.42    -27.53     24.00
    9.8203     31.46     29.45    -26.63     24.00
    9.8304     31.39     29.47    -26.73     24.00
    9.8406     30.57     29.50    -27.57     24.00
    9.8508     30.93     29.52    -27.24     24.00
    9.8609     31.09     29.55    -27.10     24.00
    9.8711     31.68     29.57    -26.54     24.00
    9.8813     30.98     29.60    -27.26     24.00
    9.8914     30.76     29.62    -27.51     24.00
    9.9016     31.75     29.65    -26.55     24.00
    9.9118     29.95     29.68    -28.37     24.00
    9.9219     30.76     29.70    -27.59     24.00
    9.9321     31.98     29.73    -26.40     24.00
    9.9422     30.88     29.76    -27.52     24.00
    9.9524     30.99     29.78    -27.44     24.00
    9.9626     31.64     29.81    -26.81     24.00
    9.9727     31.65     29.84    -26.83     24.00
    9.9829     30.97     29.86    -27.54     24.00
    9.9931     31.20     29.89    -27.34     24.00
   10.0032     32.35     29.92    -26.21     24.00
   10.0134     31.32     29.94    -27.27     24.00
   10.0236     31.62     29.97    -27.00     24.00
   10.0337     32.01     30.00    -26.64     24.00
   10.0439     32.35     30.03    -26.32     24.00
   10.0541     31.91     30.06    -26.79     24.00
   10.0642     31.32     30.08    -27.41     24.00
   10.0744     31.12     30.11    -27.64     24.00
   10.0845     31.97     30.14    -26.82     24.00
   10.0947     31.90     30.17    -26.91     24.00
   10.1049     32.09     30.20    -26.75     24.00
   10.1150     31.59     30.23    -27.28     24.00
   10.1252     32.49     30.25    -26.41     24.00
   10.1354     32.47     30.28    -26.46     24.00
   10.1455     31.84     30.31    -27.12     24.00
   10.1557     32.26     30.34    -26.73     24.00
   10.1659     31.31     30.37    -27.71     24.00
   10.1760     32.44     30.40    -26.61     24.00
   10.1862     31.84     30.43    -27.24     24.00
   10.1964     32.71     30.46    -26.40     24.00
   10.2065     32.51     30.49    -26.62     24.00
   10.2167     31.81     30.52    -27.35     24.00
   10.2269     31.96     30.55    -27.23     24.00
   10.2370     32.87     30.58    -26.35     24.00
   10.2472     32.24     30.61    -27.02     24.00
   10.2573     31.87     30.64    -27.42     24.00
   10.2675     32.26     30.67    -27.06     24.00
   10.2777     32.47     30.70    -26.88     24.00
   10.2878     32.27     30.73    -27.11     24.00
   10.2980     33.00     30.76    -26.41     24.00
   10.3082     32.25     30.79    -27.19     24.00
   10.3183     32.43     30.83    -27.04     24.00
   10.3285     32.57     30.86    -26.93     24.00
   10.3387     31.59     30.89    -27.94     24.00
   10.3488     31.96     30.92    -27.61     24.00
   10.3590     31.92     30.95    -27.68     24.00
   10.3692     32.38     30.98    -27.25     24.00
   10.3793     31.93     31.02    -27.73     24.00
   10.3895     32.49     31.05    -27.20     24.00
   10.3996     32.20     31.08    -27.53     24.00
   10.4098     31.80     31.11    -27.96     24.00
   10.4200     33.69     31.15    -26.10     24.00
   10.4301     32.73     31.18    -27.09     24.00
   10.4403     32.88     31.21    -26.98     24.00
   10.4505     32.65     31.25    -27.24     24.00
   10.4606     32.36     31.28    -27.56     24.00
   10.4708     33.38     31.31    -26.58     24.00
   10.4810     32.36     31.35    -27.63     24.00
   10.4911     33.30     31.38    -26.72     24.00
   10.5013     32.93     31.41    -27.13     24.00
   10.5115     32.87     31.45    -27.22     24.00
   10.5216     32.78     31.48    -27.35     24.00
   10.5318     32.55     31.51    -27.61     24.00
   10.5420     32.59     31.55    -27.61     24.00
   10.5521     32.43     31.58    -27.80     24.00
   10.5623     34.65     31.62    -25.61     24.00
   10.5724     33.40     31.65    -26.90     24.00
   10.5826     32.81     31.69    -27.52     24.00
   10.5928     33.13     31.72    -27.24     24.00
   10.6029     32.95     31.76    -27.45     24.00
   10.6131     33.13     31.79    -27.31     24.00
   10.6233     33.82     31.83    -26.66     24.00
   10.6334     33.01     31.87    -27.50     24.00
   10.6436     32.58     31.90    -27.97     24.00
   10.6538     32.84     31.94    -27.74     24.00
   10.6639     33.16     31.97    -27.46     24.00
   10.6741     33.47     32.01    -27.19     24.00
   10.6843     32.76     32.05    -27.93     24.00
   10.6944     33.72     32.08    -27.01     24.00
   10.7046     32.76     32.12    -28.01     24.00
   10.7147     32.75     32.16    -28.05     24.00
   10.7249     32.74     32.19    -28.10     24.00
   10.7351     33.13     32.23    -27.75     24.00
   10.7452     33.74     32.27    -27.17     24.00
   10.7554     33.43     32.31    -27.52     24.00
   10.7656     32.32     32.34    -28.67     24.00
   10.7757     33.23     32.38    -27.80     24.00
   10.7859     33.46     32.42    -27.61     24.00
   10.7961     33.66     32.46    -27.44     24.00
   10.8062     33.00     32.50    -28.14     24.00
   10.8164     34.43     32.53    -26.75     24.00
   10.8266     33.66     32.57    -27.56     24.00
   10.8367     32.86     32.61    -28.40     24.00
   10.8469     33.87     32.65    -27.43     24.00
   10.8571     33.26     32.69    -28.08     24.00
   10.8672     34.63     32.73    -26.74     24.00
   10.8774     33.97     32.77    -27.44     24.00
   10.8875     33.57     32.81    -27.88     24.00
   10.8977     34.04     32.85    -27.45     24.00
   10.9079     32.97     32.89    -28.56     24.00
   10.9180     34.20     32.93    -27.37     24.00
   10.9282     33.71     32.97    -27.90     24.00
   10.9384     34.73     33.01    -26.92     24.00
   10.9485     34.23     33.05    -27.46     24.00
   10.9587     34.12     33.09    -27.62     24.00
   10.9689     34.71     33.13    -27.07     24.00
   10.9790     34.34     33.17    -27.48     24.00
   10.9892     34.29     33.21    -27.57     24.00
   10.9994     35.05     33.25    -26.85     24.00
   11.0095     34.94     33.30    -27.00     24.00
   11.0197     34.50     33.34    -27.48     24.00
   11.0298     34.35     33.38    -27.67     24.00
   11.0400     33.48     33.42    -28.59     24.00
   11.0502     34.23     33.46    -27.88     24.00
   11.0603     34.10     33.51    -28.05     24.00
   11.0705     34.52     33.55    -27.67     24.00
   11.0807     35.21     33.59    -27.03     24.00
   11.0908     34.56     33.63    -27.72     24.00
   11.1010     35.62     33.68    -26.70     24.00
   11.1112     34.43     33.72    -27.94     24.00
   11.1213     34.71     33.76    -27.70     24.00
   11.1315     35.35     33.81    -27.10     24.00
   11.1417     34.80     33.85    -27.70     24.00
   11.1518     34.81     33.89    -27.73     24.00
   11.1620     34.78     33.94    -27.80     24.00
   11.1722     34.86     33.98    -27.77     24.00
   11.1823     35.21     34.03    -27.46     24.00
   11.1925     36.99     34.07    -25.73     24.00
   11.2026     34.95     34.12    -27.81     24.00
   11.2128     35.82     34.16    -26.99     24.00
   11.2230     35.07     34.21    -27.78     24.00
   11.2331     34.98     34.25    -27.92     24.00
   11.2433     35.15     34.30    -27.79     24.00
   11.2535     35.21     34.34    -27.78     24.00
   11.2636     34.87     34.39    -28.16     24.00
   11.2738     34.95     34.43    -28.13     24.00
   11.2840     35.87     34.48    -27.26     24.00
   11.2941     35.29     34.53    -27.88     24.00
   11.3043     35.74     34.57    -27.48     24.00
   11.3145     34.97     34.62    -28.29     24.00
   11.3246     35.16     34.67    -28.15     24.00
   11.3348     35.03     34.71    -28.33     24.00
   11.3449     35.27     34.76    -28.13     24.00
   11.3551     35.62     34.81    -27.83     24.00
   11.3653     36.05     34.85    -27.45     24.00
   11.3754     35.26     34.90    -28.29     24.00
   11.3856     35.77     34.95    -27.83     24.00
   11.3958     35.97     35.00    -27.67     24.00
   11.4059     35.82     35.05    -27.87     24.00
   11.4161     35.85     35.09    -27.89     24.00
   11.4263     34.98     35.14    -28.81     24.00
   11.4364     35.94     35.19    -27.90     24.00
   11.4466     35.45     35.24    -28.44     24.00
   11.4568     35.79     35.29    -28.15     24.00
   11.4669     36.06     35.34    -27.92     24.00
   11.4771     36.29     35.39    -27.74     24.00
   11.4873     36.91     35.44    -27.17     24.00
   11.4974     37.14     35.49    -26.99     24.00
   11.5076     36.21     35.54    -27.97     24.00
   11.5177     36.07     35.59    -28.16     24.00
   11.5279     35.77     35.64    -28.51     24.00
   11.5381     36.51     35.69    -27.82     24.00
   11.5482     36.90     35.74    -27.48     24.00
   11.5584     37.07     35.79    -27.37     24.00
   11.5686     36.94     35.84    -27.55     24.00
   11.5787     36.46     35.89    -28.08     24.00
   11.5889     36.87     35.94    -27.72     24.00
   11.5991     36.63     35.99    -28.01     24.00
   11.6092     35.79     36.05    -28.90     24.00
   11.6194     37.23     36.10    -27.51     24.00
   11.6296     36.85     36.15    -27.95     24.00
   11.6397     36.21     36.20    -28.64     24.00
   11.6499     36.11     36.26    -28.79     24.00
   11.6600     36.50     36.31    -28.45     24.00
   11.6702     36.63     36.36    -28.38     24.00
   11.6804     36.40     36.41    -28.66     24.00
   11.6905     36.68     36.47    -28.43     24.00
   11.7007     37.30     36.52    -27.87     24.00
   11.7109     38.05     36.57    -27.17     24.00
   11.7210     36.45     36.63    -28.82     24.00
   11.7312     37.51     36.68    -27.82     24.00
   11.7414     38.66     36.74    -26.72     24.00
   11.7515     36.93     36.79    -28.51     24.00
   11.7617     37.94     36.85    -27.55     24.00
   11.7719     39.45     36.90    -26.10     24.00
   11.7820     37.18     36.95    -28.42     24.00
   11.7922     37.73     37.01    -27.93     24.00
   11.8023     37.29     37.07    -28.42     24.00
   11.8125     36.25     37.12    -29.52     24.00
   11.8227     36.88     37.18    -28.94     24.00
   11.8328     37.70     37.23    -28.18     24.00
   11.8430     37.68     37.29    -28.25     24.00
   11.8532     37.47     37.35    -28.52     24.00
   11.8633     38.86     37.40    -27.19     24.00
   11.8735     37.87     37.46    -28.23     24.00
   11.8837     38.18     37.52    -27.98     24.00
   11.8938     37.79     37.57    -28.43     24.00
   11.9040     36.70     37.63    -29.58     24.00
   11.9142     37.98     37.69    -28.35     24.00
   11.9243     38.56     37.74    -27.83     24.00
   11.9345     37.57     37.80    -28.88     24.00
   11.9447     37.84     37.86    -28.67     24.00
   11.9548     39.01     37.92    -27.55     24.00
   11.9650     37.77     37.98    -28.85     24.00
   11.9751     38.61     38.03    -28.07     24.00
   11.9853     38.18     38.09    -28.56     24.00
   11.9955     38.57     38.15    -28.23     24.00
   12.0056     38.65     38.21    -28.21     24.00
   12.0158     38.47     38.27    -28.45     24.00
   12.0260     39.17     38.33    -27.81     24.00
   12.0361     39.05     38.39    -27.99     24.00
   12.0463     38.93     38.45    -28.17     24.00
   12.0565     38.59     38.51    -28.57     24.00
   12.0666     37.74     38.57    -29.48     24.00
   12.0768     38.78     38.63    -28.50     24.00
   12.0870     38.71     38.69    -28.63     24.00
   12.0971     38.96     38.75    -28.44     24.00
   12.1073     38.64     38.81    -28.82     24.00
   12.1174     38.38     38.87    -29.14     24.00
   12.1276     39.87     38.94    -27.71     24.00
   12.1378     39.60     39.00    -28.04     24.00
   12.1479     39.25     39.06    -28.46     24.00
   12.1581     39.31     39.12    -28.46     24.00
   12.1683     39.00     39.18    -28.83     24.00
   12.1784     38.87     39.25    -29.02     24.00
   12.1886     39.02     39.31    -28.94     24.00
   12.1988     39.09     39.37    -28.93     24.00
   12.2089     39.45     39.44    -28.63     24.00
   12.2191     39.11     39.50    -29.04     24.00
   12.2293     39.96     39.56    -28.25     24.00
   12.2394     39.52     39.63    -28.75     24.00
   12.2496     39.61     39.69    -28.73     24.00
   12.2598     39.65     39.75    -28.75     24.00
   12.2699     39.35     39.82    -29.11     24.00
   12.2801     39.73     39.88    -28.80     24.00
   12.2902     39.68     39.95    -28.91     24.00
   12.3004     40.20     40.01    -28.46     24.00
   12.3106     39.54     40.08    -29.18     24.00
   12.3207     40.09     40.14    -28.70     24.00
   12.3309     38.96     40.21    -29.89     24.00
   12.3411     40.33     40.27    -28.59     24.00
   12.3512     40.03     40.34    -28.96     24.00
   12.3614     40.20     40.41    -28.85     24.00
   12.3716     41.35     40.47    -27.77     24.00
   12.3817     41.00     40.54    -28.18     24.00
   12.3919     39.78     40.60    -29.47     24.00
   12.4021     40.74     40.67    -28.58     24.00
   12.4122     40.59     40.74    -28.79     24.00
   12.4224     40.09     40.81    -29.36     24.00
   12.4325     41.27     40.87    -28.25     24.00
   12.4427     40.51     40.94    -29.08     24.00
   12.4529     40.63     41.01    -29.02     24.00
   12.4630     39.85     41.08    -29.87     24.00
   12.4732     41.34     41.15    -28.45     24.00
   12.4834     41.12     41.21    -28.74     24.00
   12.4935     40.40     41.28    -29.53     24.00
   12.5037     41.97     41.35    -28.03     24.00
   12.5139     41.52     41.42    -28.55     24.00
   12.5240     41.75     41.49    -28.39     24.00
   12.5342     41.32     41.56    -28.88     24.00
   12.5444     41.50     41.63    -28.77     24.00
   12.5545     41.14     41.70    -29.20     24.00
   12.5647     41.24     41.77    -29.17     24.00
   12.5749     40.13     41.84    -30.35     24.00
   12.5850     40.89     41.91    -29.66     24.00
   12.5952     41.60     41.98    -29.03     24.00
   12.6053     41.49     42.05    -29.21     24.00
   12.6155     40.87     42.12    -29.90     24.00
   12.6257     41.99     42.19    -28.85     24.00
   12.6358     41.40     42.26    -29.51     24.00
   12.6460     41.16     42.34    -29.82     24.00
   12.6562     42.01     42.41    -29.04     24.00
   12.6663     42.10     42.48    -29.03     24.00
   12.6765     41.42     42.55    -29.78     24.00
   12.6867     43.70     42.63    -27.57     24.00
   12.6968     41.72     42.70    -29.62     24.00
   12.7070     42.66     42.77    -28.76     24.00
   12.7172     42.62     42.84    -28.87     24.00
   12.7273     42.01     42.92    -29.55     24.00
   12.7375     42.48     42.99    -29.16     24.00
   12.7476     42.46     43.06    -29.25     24.00
   12.7578     42.93     43.14    -28.85     24.00
   12.7680     41.46     43.21    -30.40     24.00
   12.7781     43.31     43.29    -28.62     24.00
   12.7883     43.37     43.36    -28.64     24.00
   12.7985     42.40     43.44    -29.68     24.00
   12.8086     43.22     43.51    -28.94     24.00
   12.8188     43.40     43.59    -28.83     24.00
   12.8290     44.04     43.66    -28.27     24.00
   12.8391     43.10     43.74    -29.28     24.00
   12.8493     43.49     43.81    -28.97     24.00
   12.8595     42.32     43.89    -30.21     24.00
   12.8696     43.32     43.96    -29.29     24.00
   12.8798     43.69     44.04    -29.00     24.00
   12.8900     43.67     44.12    -29.09     24.00
   12.9001     43.15     44.19    -29.69     24.00
   12.9103     42.58     44.27    -30.34     24.00
   12.9204     43.78     44.35    -29.21     24.00
   12.9306     44.29     44.42    -28.78     24.00
   12.9408     43.92     44.50    -29.23     24.00
   12.9509     43.80     44.58    -29.43     24.00
   12.9611     43.80     44.66    -29.50     24.00
   12.9713     44.60     44.74    -28.78     24.00
   12.9814     43.63     44.81    -29.83     24.00
   12.9916     44.51     44.89    -29.03     24.00
   13.0018     44.67     44.97    -28.95     24.00
   13.0119     43.51     45.05    -30.19     24.00
   13.0221     44.77     45.13    -29.01     24.00
   13.0323     44.77     45.21    -29.09     24.00
   13.0424     43.86     45.29    -30.07     24.00
   13.0526     44.68     45.37    -29.33     24.00
   13.0627     43.47     45.45    -30.62     24.00
   13.0729     44.07     45.53    -30.10     24.00
   13.0831     43.52     45.61    -30.74     24.00
   13.0932     44.82     45.69    -29.52     24.00
   13.1034     43.40     45.77    -31.02     24.00
   13.1136     44.41     45.85    -30.09     24.00
   13.1237     44.93     45.93    -29.65     24.00
   13.1339     44.13     46.01    -30.53     24.00
   13.1441     44.52     46.10    -30.22     24.00
   13.1542     45.38     46.18    -29.44     24.00
   13.1644     45.54     46.26    -29.37     24.00
   13.1746     45.23     46.34    -29.76     24.00
   13.1847     45.34     46.42    -29.73     24.00
   13.1949     45.04     46.51    -30.11     24.00
   13.2051     45.46     46.59    -29.78     24.00
   13.2152     44.98     46.67    -30.34     24.00
   13.2254     45.16     46.76    -30.24     24.00
   13.2355     46.57     46.84    -28.91     24.00
   13.2457     44.65     46.92    -30.92     24.00
   13.2559     46.25     47.01    -29.40     24.00
   13.2660     46.03     47.09    -29.71     24.00
   13.2762     44.71     47.17    -31.11     24.00
   13.2864     46.41     47.26    -29.49     24.00
   13.2965     45.90     47.34    -30.09     24.00
   13.3067     45.93     47.43    -30.14     24.00
   13.3169     47.30     47.51    -28.86     24.00
   13.3270     46.10     47.60    -30.14     24.00
   13.3372     46.41     47.68    -29.92     24.00
   13.3474     46.79     47.77    -29.62     24.00
   13.3575     45.45     47.85    -31.05     24.00
   13.3677     47.14     47.94    -29.45     24.00
   13.3778     46.33     48.03    -30.34     24.00
   13.3880     46.98     48.11    -29.78     24.00
   13.3982     47.68     48.20    -29.17     24.00
   13.4083     47.75     48.29    -29.18     24.00
   13.4185     47.28     48.37    -29.74     24.00
   13.4287     46.73     48.46    -30.38     24.00
   13.4388     47.46     48.55    -29.73     24.00
   13.4490     48.37     48.63    -28.91     24.00
   13.4592     48.26     48.72    -29.11     24.00
   13.4693     48.26     48.81    -29.20     24.00
   13.4795     47.29     48.90    -30.25     24.00
   13.4897     47.16     48.99    -30.47     24.00
   13.4998     47.75     49.07    -29.97     24.00
   13.5100     47.97     49.16    -29.84     24.00
   13.5201     48.13     49.25    -29.77     24.00
   13.5303     48.14     49.34    -29.85     24.00
   13.5405     47.73     49.43    -30.35     24.00
   13.5506     48.46     49.52    -29.71     24.00
   13.5608     48.26     49.61    -30.00     24.00
   13.5710     48.51     49.70    -29.84     24.00
   13.5811     48.74     49.79    -29.70     24.00
   13.5913     49.08     49.88    -29.45     24.00
   13.6015     48.04     49.97    -30.58     24.00
   13.6116     49.60     50.06    -29.11     24.00
   13.6218     49.10     50.15    -29.70     24.00
   13.6320     49.74     50.24    -29.15     24.00
   13.6421     49.44     50.33    -29.54     24.00
   13.6523     50.19     50.43    -28.88     24.00
   13.6625     49.65     50.52    -29.51     24.00
   13.6726     50.10     50.61    -29.15     24.00
   13.6828     49.21     50.70    -30.14     24.00
   13.6929     49.58     50.79    -29.86     24.00
   13.7031     50.67     50.88    -28.86     24.00
   13.7133     50.34     50.98    -29.28     24.00
   13.7234     49.52     51.07    -30.20     24.00
   13.7336     49.37     51.16    -30.44     24.00
   13.7438     48.98     51.26    -30.92     24.00
   13.7539     49.88     51.35    -30.11     24.00
   13.7641     51.31     51.44    -28.78     24.00
   13.7743     50.55     51.54    -29.63     24.00
   13.7844     50.60     51.63    -29.68     24.00
   13.7946     51.34     51.72    -29.03     24.00
   13.8048     51.63     51.82    -28.83     24.00
   13.8149     51.42     51.91    -29.14     24.00
   13.8251     51.89     52.01    -28.76     24.00
   13.8352     51.41     52.10    -29.34     24.00
   13.8454     49.60     52.20    -31.24     24.00
   13.8556     52.29     52.29    -28.65     24.00
   13.8657     51.01     52.39    -30.02     24.00
   13.8759     51.21     52.48    -29.92     24.00
   13.8861     51.29     52.58    -29.93     24.00
   13.8962     51.51     52.67    -29.81     24.00
   13.9064     51.79     52.77    -29.63     24.00
   13.9166     51.56     52.87    -29.95     24.00
   13.9267     50.63     52.96    -30.98     24.00
   13.9369     51.70     53.06    -30.00     24.00
   13.9471     52.20     53.16    -29.60     24.00
   13.9572     52.39     53.25    -29.51     24.00
   13.9674     52.21     53.35    -29.79     24.00
   13.9776     51.58     53.45    -30.51     24.00
   13.9877     51.99     53.54    -30.20     24.00
   13.9979     52.27     53.64    -30.02     24.00
   14.0080     52.95     53.74    -29.43     24.00
   14.0182     53.95     53.84    -28.53     24.00
   14.0284     52.60     53.94    -29.98     24.00
   14.0385     53.62     54.03    -29.06     24.00
   14.0487     53.84     54.13    -28.94     24.00
   14.0589     53.07     54.23    -29.81     24.00
   14.0690     52.85     54.33    -30.13     24.00
   14.0792     53.33     54.43    -29.75     24.00
   14.0894     53.58     54.53    -29.59     24.00
   14.0995     54.91     54.63    -28.36     24.00
   14.1097     54.30     54.73    -29.07     24.00
   14.1199     54.10     54.83    -29.37     24.00
   14.1300     52.88     54.93    -30.69     24.00
   14.1402     52.52     55.03    -31.15     24.00
   14.1503     53.40     55.13    -30.37     24.00
   14.1605     55.28     55.23    -28.59     24.00
   14.1707     54.87     55.33    -29.11     24.00
   14.1808     54.62     55.43    -29.46     24.00
   14.1910     55.96     55.53    -28.22     24.00
   14.2012     55.26     55.63    -29.02     24.00
   14.2113     55.30     55.73    -29.08     24.00
   14.2215     55.82     55.84    -28.66     24.00
   14.2317     55.01     55.94    -29.57     24.00
   14.2418     55.21     56.04    -29.47     24.00
   14.2520     54.95     56.14    -29.84     24.00
   14.2622     54.43     56.24    -30.46     24.00
   14.2723     57.09     56.35    -27.90     24.00
   14.2825     55.96     56.45    -29.13     24.00
   14.2927     55.60     56.55    -29.60     24.00
   14.3028     55.40     56.65    -29.90     24.00
   14.3130     56.24     56.76    -29.16     24.00
   14.3231     55.57     56.86    -29.94     24.00
   14.3333     55.90     56.96    -29.71     24.00
   14.3435     56.54     57.07    -29.17     24.00
   14.3536     56.34     57.17    -29.48     24.00
   14.3638     56.37     57.28    -29.55     24.00
   14.3740     56.51     57.38    -29.52     24.00
   14.3841     56.49     57.49    -29.64     24.00
   14.3943     57.48     57.59    -28.76     24.00
   14.4045     56.14     57.70    -30.20     24.00
   14.4146     56.20     57.80    -30.25     24.00
   14.4248     56.21     57.91    -30.34     24.00
   14.4350     56.88     58.01    -29.78     24.00
   14.4451     57.87     58.12    -28.89     24.00
   14.4553     57.71     58.22    -29.16     24.00
   14.4654     56.74     58.33    -30.23     24.00
   14.4756     57.82     58.43    -29.26     24.00
   14.4858     58.12     58.54    -29.07     24.00
   14.4959     58.37     58.65    -28.92     24.00
   14.5061     57.68     58.75    -29.72     24.00
   14.5163     58.26     58.86    -29.25     24.00
   14.5264     57.80     58.97    -29.81     24.00
   14.5366     57.86     59.08    -29.86     24.00
   14.5468     59.49     59.18    -28.34     24.00
   14.5569     58.49     59.29    -29.45     24.00
   14.5671     58.51     59.40    -29.54     24.00
   14.5773     58.70     59.51    -29.45     24.00
   14.5874     58.71     59.62    -29.55     24.00
   14.5976     59.01     59.72    -29.36     24.00
   14.6078     59.04     59.83    -29.44     24.00
   14.6179     60.25     59.94    -28.34     24.00
   14.6281     58.59     60.05    -30.11     24.00
   14.6382     59.23     60.16    -29.58     24.00
   14.6484     59.84     60.27    -29.08     24.00
   14.6586     59.07     60.38    -29.96     24.00
   14.6687     58.98     60.49    -30.16     24.00
   14.6789     60.14     60.60    -29.11     24.00
   14.6891     60.20     60.71    -29.16     24.00
   14.6992     59.91     60.82    -29.56     24.00
   14.7094     60.75     60.93    -28.83     24.00
   14.7196     60.77     61.05    -28.92     24.00
   14.7297     60.46     61.16    -29.34     24.00
   14.7399     59.94     61.27    -29.97     24.00
   14.7501     60.61     61.38    -29.42     24.00
   14.7602     61.02     61.49    -29.12     24.00
   14.7704     61.09     61.61    -29.16     24.00
   14.7805     60.70     61.72    -29.66     24.00
   14.7907     60.68     61.83    -29.80     24.00
   14.8009     61.49     61.94    -29.10     24.00
   14.8110     61.23     62.06    -29.47     24.00
   14.8212     60.51     62.17    -30.31     24.00
   14.8314     63.83     62.29    -27.10     24.00
   14.8415     61.68     62.40    -29.37     24.00
   14.8517     62.93     62.51    -28.23     24.00
   14.8619     61.87     62.63    -29.41     24.00
   14.8720     62.77     62.74    -28.62     24.00
   14.8822     62.40     62.86    -29.11     24.00
   14.8924     63.04     62.98    -28.58     24.00
   14.9025     62.90     63.09    -28.84     24.00
   14.9127     62.76     63.21    -29.09     24.00
   14.9229     62.73     63.33    -29.24     24.00
   14.9330     63.65     63.44    -28.44     24.00
   14.9432     63.37     63.56    -28.84     24.00
   14.9533     63.71     63.68    -28.61     24.00
   14.9635     64.10     63.79    -28.34     24.00
   14.9737     63.01     63.91    -29.55     24.00
   14.9838     63.23     64.03    -29.45     24.00
   14.9940     64.07     64.15    -28.73     24.00
   15.0042     62.74     64.27    -30.18     24.00
   15.0143     63.94     64.39    -29.09     24.00
   15.0245     66.07     64.51    -27.09     24.00
   15.0347     64.14     64.63    -29.14     24.00
   15.0448     65.34     64.75    -28.06     24.00
   15.0550     65.65     64.87    -27.87     24.00
   15.0652     64.74     64.99    -28.90     24.00
   15.0753     66.45     65.11    -27.31     24.00
   15.0855     65.93     65.24    -27.95     24.00
   15.0956     65.45     65.36    -28.55     24.00
   15.1058     65.12     65.48    -29.01     24.00
   15.1160     66.69     65.61    -27.56     24.00
   15.1261     65.16     65.73    -29.22     24.00
   15.1363     66.48     65.85    -28.02     24.00
   15.1465     66.59     65.98    -28.04     24.00
   15.1566     66.51     66.10    -28.24     24.00
   15.1668     66.77     66.23    -28.11     24.00
   15.1770     66.69     66.36    -28.31     24.00
   15.1871     66.72     66.48    -28.41     24.00
   15.1973     66.49     66.61    -28.77     24.00
   15.2075     67.79     66.74    -27.59     24.00
   15.2176     68.47     66.87    -27.04     24.00
   15.2278     68.12     66.99    -27.52     24.00
   15.2380     68.52     67.12    -27.25     24.00
   15.2481     67.37     67.25    -28.53     24.00
   15.2583     68.43     67.38    -27.60     24.00
   15.2684     67.62     67.51    -28.54     24.00
   15.2786     68.28     67.64    -28.01     24.00
   15.2888     67.13     67.78    -29.29     24.00
   15.2989     68.11     67.91    -28.44     24.00
   15.3091     68.94     68.04    -27.75     24.00
   15.3193     69.51     68.18    -27.31     24.00
   15.3294     69.30     68.31    -27.65     24.00
   15.3396     70.70     68.44    -26.39     24.00
   15.3498     69.07     68.58    -28.16     24.00
   15.3599     69.00     68.72    -28.36     24.00
   15.3701     69.96     68.85    -27.54     24.00
   15.3803     69.95     68.99    -27.69     24.00
   15.3904     70.88     69.13    -26.89     24.00
   15.4006     69.63     69.27    -28.28     24.00
   15.4107     70.99     69.40    -27.06     24.00
   15.4209     71.05     69.54    -27.14     24.00
   15.4311     71.47     69.69    -26.86     24.00
   15.4412     70.97     69.83    -27.50     24.00
   15.4514     69.88     69.97    -28.73     24.00
   15.4616     71.27     70.11    -27.49     24.00
   15.4717     71.18     70.25    -27.72     24.00
   15.4819     70.18     70.40    -28.87     24.00
   15.4921     71.75     70.54    -27.44     24.00
   15.5022     70.96     70.69    -28.38     24.00
   15.5124     71.58     70.84    -27.90     24.00
   15.5226     72.57     70.98    -27.06     24.00
   15.5327     73.04     71.13    -26.74     24.00
   15.5429     71.86     71.28    -28.07     24.00
   15.5530     71.39     71.43    -28.69     24.00
   15.5632     72.41     71.58    -27.82     24.00
   15.5734     71.77     71.73    -28.61     24.00
   15.5835     72.95     71.88    -27.58     24.00
   15.5937     73.56     72.04    -27.12     24.00
   15.6039     73.49     72.19    -27.35     24.00
   15.6140     73.63     72.35    -27.36     24.00
   15.6242     73.39     72.50    -27.76     24.00
   15.6344     73.15     72.66    -28.16     24.00
   15.6445     74.39     72.82    -27.07     24.00
   15.6547     75.62     72.98    -26.00     24.00
   15.6649     74.55     73.14    -27.23     24.00
   15.6750     73.07     73.30    -28.87     24.00
   15.6852     75.18     73.46    -26.93     24.00
   15.6954     75.38     73.62    -26.89     24.00
   15.7055     75.29     73.79    -27.14     24.00
   15.7157     74.63     73.95    -27.97     24.00
   15.7258     74.49     74.11    -28.27     24.00
   15.7360     75.88     74.28    -27.05     24.00
   15.7462     74.91     74.45    -28.19     24.00
   15.7563     75.31     74.62    -27.95     24.00
   15.7665     74.29     74.79    -29.14     24.00
   15.7767     76.43     74.96    -27.18     24.00
   15.7868     75.11     75.13    -28.67     24.00
   15.7970     76.18     75.30    -27.77     24.00
   15.8072     76.76     75.48    -27.36     24.00
   15.8173     75.87     75.65    -28.43     24.00
   15.8275     76.61     75.83    -27.87     24.00
   15.8377     76.01     76.01    -28.64     24.00
   15.8478     77.90     76.18    -26.93     24.00
   15.8580     77.38     76.37    -27.63     24.00
   15.8681     76.99     76.54    -28.20     24.00
   15.8783     75.74     76.73    -29.63     24.00
   15.8885     78.52     76.91    -27.04     24.00
   15.8986     78.17     77.09    -27.57     24.00
   15.9088     78.82     77.28    -27.11     24.00
   15.9190     78.65     77.47    -27.46     24.00
   15.9291     78.52     77.65    -27.78     24.00
   15.9393     78.58     77.84    -27.91     24.00
   15.9495     79.86     78.03    -26.82     24.00
   15.9596     79.20     78.22    -27.67     24.00
   15.9698     78.52     78.42    -28.54     24.00
   15.9800     79.74     78.61    -27.52     24.00
   15.9901     79.62     78.80    -27.83     24.00
   16.0003     79.73     79.00    -27.92     24.00
   16.0105     78.93     79.20    -28.91     24.00
   16.0206     80.85     79.40    -27.19     24.00
   16.0308     80.46     79.60    -27.78     24.00
   16.0409     80.33     79.80    -28.11     24.00
   16.0511     80.58     80.00    -28.06     24.00
   16.0613     80.49     80.20    -28.36     24.00
   16.0714     79.73     80.40    -29.32     24.00
   16.0816     81.37     80.61    -27.89     24.00
   16.0918     81.48     80.82    -27.98     24.00
   16.1019     82.38     81.02    -27.29     24.00
   16.1121     80.91     81.23    -28.97     24.00
   16.1223     81.30     81.45    -28.79     24.00
   16.1324     81.23     81.66    -29.07     24.00
   16.1426     81.40     81.87    -29.11     24.00
   16.1528     82.39     82.08    -28.34     24.00
   16.1629     83.09     82.30    -27.85     24.00
   16.1731     83.69     82.51    -27.47     24.00
   16.1832     83.09     82.73    -28.28     24.00
   16.1934     83.90     82.95    -27.69     24.00
   16.2036     82.79     83.17    -29.02     24.00
   16.2137     83.11     83.39    -28.92     24.00
   16.2239     83.74     83.61    -28.52     24.00
   16.2341     84.11     83.83    -28.37     24.00
   16.2442     84.51     84.06    -28.19     24.00
   16.2544     85.18     84.28    -27.75     24.00
   16.2646     84.36     84.51    -28.79     24.00
   16.2747     85.03     84.73    -28.35     24.00
   16.2849     85.93     84.96    -27.68     24.00
   16.2951     86.63     85.19    -27.21     24.00
   16.3052     85.67     85.42    -28.40     24.00
   16.3154     84.53     85.65    -29.77     24.00
   16.3256     87.10     85.88    -27.43     24.00
   16.3357     84.46     86.12    -30.30     24.00
   16.3459     85.03     86.35    -29.97     24.00
   16.3560     86.68     86.58    -28.55     24.00
   16.3662     85.99     86.82    -29.48     24.00
   16.3764     87.21     87.06    -28.49     24.00
   16.3865     87.92     87.29    -28.02     24.00
   16.3967     87.67     87.53    -28.51     24.00
   16.4069     86.45     87.77    -29.97     24.00
   16.4170     88.14     88.01    -28.51     24.00
   16.4272     87.96     88.25    -28.94     24.00
   16.4374     88.13     88.49    -29.01     24.00
   16.4475     87.95     88.73    -29.43     24.00
   16.4577     88.78     88.98    -28.84     24.00
   16.4679     88.63     89.22    -29.24     24.00
   16.4780     89.95     89.46    -28.16     24.00
   16.4882     89.53     89.71    -28.82     24.00
   16.4983     90.29     89.95    -28.31     24.00
   16.5085     90.35     90.20    -28.49     24.00
   16.5187     89.88     90.44    -29.21     24.00
   16.5288     91.33     90.69    -28.00     24.00
   16.5390     91.25     90.93    -28.33     24.00
   16.5492     89.51     91.18    -30.32     24.00
   16.5593     91.69     91.43    -28.38     24.00
   16.5695     91.00     91.68    -29.32     24.00
   16.5797     90.45     91.93    -30.12     24.00
   16.5898     91.35     92.17    -29.47     24.00
   16.6000     92.73     92.42    -28.34     24.00
   16.6102     90.66     92.67    -30.66     24.00
   16.6203     92.59     92.92    -28.97     24.00
   16.6305     90.21     93.17    -31.60     24.00
   16.6407     94.15     93.42    -27.91     24.00
   16.6508     93.74     93.67    -28.57     24.00
   16.6610     94.63     93.92    -27.93     24.00
   16.6711     94.51     94.16    -28.30     24.00
   16.6813     94.38     94.41    -28.68     24.00
   16.6915     93.82     94.66    -29.49     24.00
   16.7016     92.40     94.91    -31.16     24.00
   16.7118     94.55     95.16    -29.26     24.00
   16.7220     96.87     95.41    -27.18     24.00
   16.7321     96.21     95.65    -28.09     24.00
   16.7423     94.96     95.90    -29.59     24.00
   16.7525     96.09     96.15    -28.71     24.00
   16.7626     95.73     96.40    -29.31     24.00
   16.7728     96.05     96.64    -29.24     24.00
   16.7830     95.93     96.89    -29.61     24.00
   16.7931     97.23     97.13    -28.55     24.00
   16.8033     96.02     97.38    -30.00     24.00
   16.8134     96.59     97.62    -29.68     24.00
   16.8236     97.32     97.86    -29.19     24.00
   16.8338     97.54     98.11    -29.21     24.00
   16.8439     96.93     98.35    -30.06     24.00
   16.8541     97.70     98.59    -29.54     24.00
   16.8643     96.91     98.83    -30.57     24.00
   16.8744     99.66     99.07    -28.05     24.00
   16.8846     99.07     99.31    -28.88     24.00
   16.8948     99.37     99.54    -28.82     24.00
   16.9049     98.48     99.78    -29.94     24.00
   16.9151     99.37    100.01    -29.29     24.00
   16.9253     97.20    100.25    -31.69     24.00
   16.9354     99.11    100.48    -30.01     24.00
   16.9456     98.63    100.71    -30.73     24.00
   16.9558    100.73    100.94    -28.86     24.00
   16.9659    100.74    101.17    -29.07     24.00
   16.9761     99.88    101.40    -30.16     24.00
   16.9862     97.40    101.62    -32.87     24.00
   16.9964    101.32    101.85    -29.17     24.00
   17.0066    100.49    102.07    -30.22     24.00
   17.0167     99.66    102.29    -31.27     24.00
   17.0269    100.88    102.51    -30.27     24.00
   17.0371    100.07    102.73    -31.30     24.00
   17.0472    101.38    102.94    -30.21     24.00
   17.0574     99.87    103.16    -31.93     24.00
   17.0676    101.55    103.37    -30.47     24.00
   17.0777    102.66    103.58    -29.57     24.00
   17.0879    101.67    103.79    -30.76     24.00
   17.0981    102.65    104.00    -29.99     24.00
   17.1082    101.97    104.20    -30.88     24.00
   17.1184    102.89    104.40    -30.16     24.00
   17.1285    103.70    104.60    -29.55     24.00
   17.1387    104.12    104.80    -29.33     24.00
   17.1489    103.05    105.00    -30.60     24.00
   17.1590    101.66    105.20    -32.18     24.00
   17.1692    104.27    105.39    -29.77     24.00
   17.1794    104.18    105.58    -30.05     24.00
   17.1895    104.05    105.77    -30.37     24.00
   17.1997    101.81    105.96    -32.79     24.00
   17.2099    103.35    106.14    -31.44     24.00
   17.2200    104.21    106.33    -30.76     24.00
   17.2302    105.54    106.51    -29.61     24.00
   17.2404    107.30    106.69    -28.03     24.00
   17.2505    103.54    106.86    -31.97     24.00
   17.2607    104.55    107.04    -31.14     24.00
   17.2709    104.90    107.21    -30.96     24.00
   17.2810    105.07    107.38    -30.96     24.00
   17.2912    104.14    107.55    -32.06     24.00
   17.3013    107.36    107.72    -29.01     24.00
   17.3115    105.07    107.89    -31.46     24.00
   17.3217    104.76    108.05    -31.94     24.00
   17.3318    107.62    108.21    -29.24     24.00
   17.3420    106.69    108.37    -30.33     24.00
   17.3522    106.74    108.54    -30.44     24.00
   17.3623    107.40    108.69    -29.94     24.00
   17.3725    107.36    108.85    -30.14     24.00
   17.3827    110.15    109.01    -27.50     24.00
   17.3928    109.34    109.16    -28.47     24.00
   17.4030    107.98    109.32    -29.99     24.00
   17.4132    108.78    109.47    -29.34     24.00
   17.4233    108.05    109.63    -30.22     24.00
   17.4335    109.18    109.78    -29.25     24.00
   17.4436    108.98    109.94    -29.60     24.00
   17.4538    110.16    110.09    -28.58     24.00
   17.4640    110.39    110.25    -28.51     24.00
   17.4741    110.90    110.41    -28.15     24.00
   17.4843    111.66    110.57    -27.55     24.00
   17.4945    111.06    110.73    -28.31     24.00
   17.5046    112.37    110.89    -27.16     24.00
   17.5148    112.27    111.05    -27.43     24.00
   17.5250    112.74    111.22    -27.13     24.00
   17.5351    110.33    111.39    -29.71     24.00
   17.5453    112.95    111.57    -27.27     24.00
   17.5555    112.59    111.75    -27.81     24.00
   17.5656    112.42    111.94    -28.16     24.00
   17.5758    113.59    112.13    -27.18     24.00
   17.5859    113.26    112.32    -27.71     24.00
   17.5961    113.82    112.53    -27.36     24.00
   17.6063    114.10    112.74    -27.29     24.00
   17.6164    113.92    112.96    -27.69     24.00
   17.6266    114.97    113.19    -26.87     24.00
   17.6368    115.73    113.43    -26.35     24.00
   17.6469    115.72    113.68    -26.61     24.00
   17.6571    117.44    113.94    -25.15     24.00
   17.6673    118.71    114.22    -24.15     24.00
   17.6774    118.11    114.51    -25.04     24.00
   17.6876    118.18    114.81    -25.27     24.00
   17.6978    120.09    115.13    -23.68     24.00
   17.7079    119.13    115.46    -24.98     24.00
   17.7181    119.07    115.81    -25.39     24.00
   17.7283    118.91    116.19    -25.92     24.00
   17.7384    120.46    116.58    -24.76     24.00
   17.7486    119.89    116.99    -25.75     24.00
   17.7587    121.52    117.42    -24.55     24.00
   17.7689    122.96    117.88    -23.57     24.00
   17.7791    121.66    118.37    -25.35     24.00
   17.7892    122.24    118.88    -25.28     24.00
   17.7994    124.16    119.42    -23.90     24.00
   17.8096    122.97    119.99    -25.66     24.00
   17.8197    124.68    120.58    -24.55     24.00
   17.8299    126.53    121.21    -23.33     24.00
   17.8401    127.47    121.88    -23.05     24.00
   17.8502    126.27    122.57    -24.95     24.00
   17.8604    128.32    123.31    -23.64     24.00
   17.8706    128.82    124.08    -23.91     24.00
   17.8807    129.27    124.89    -24.27     24.00
   17.8909    128.79    125.75    -25.60     24.00
   17.9010    132.51    126.63    -22.77     24.00
   17.9112    132.82    127.57    -23.40     24.00
   17.9214    132.07    128.56    -25.14     24.00
   17.9315    133.94    129.58    -24.29     24.00
   17.9417    135.18    130.66    -24.13     24.00
   17.9519    135.05    131.79    -25.38     24.00
   17.9620    135.61    132.95    -25.99     24.00
   17.9722    137.03    134.18    -25.80     24.00
   17.9824    139.01    135.46    -25.09     24.00
   17.9925    138.43    136.78    -26.99     24.00
   18.0027    142.05    138.16    -24.76     24.00
   18.0129    142.10    139.60    -26.15     24.00
   18.0230    140.48    141.08    -29.25     24.00
   18.0332    143.96    142.63    -27.32     24.00
   18.0434    145.37    144.24    -27.51     24.00
   18.0535    144.72    145.88    -29.81     24.00
   18.0637    147.22    147.60    -29.03     24.00
   18.0738    150.28    149.36    -27.73     24.00
   18.0840    150.50    151.19    -29.34     24.00
   18.0942    152.34    153.08    -29.38     24.00
   18.1043    153.07    155.00    -30.57     24.00
   18.1145    154.85    156.99    -30.79     24.00
   18.1247    158.09    159.04    -29.60     24.00
   18.1348    158.26    161.13    -31.51     24.00
   18.1450    159.82    163.28    -32.11     24.00
   18.1552    161.68    165.49    -32.45     24.00
   18.1653    164.68    167.72    -31.68     24.00
   18.1755    167.41    170.02    -31.25     24.00
   18.1857    169.10    172.36    -31.91     24.00
   18.1958    168.71    174.73    -34.67     24.00
   18.2060    171.52    177.16    -34.28     24.00
   18.2161    176.59    179.60    -31.66     24.00
   18.2263    175.23    182.10    -35.52     24.00
   18.2365    176.85    184.64    -36.43     24.00
   18.2466    180.59    187.18    -35.23     24.00
   18.2568    181.42    189.76    -36.99     24.00
   18.2670    184.13    192.38    -36.89     24.00
   18.2771    188.41    194.98    -35.21     24.00
   18.2873    190.55    197.62    -35.72     24.00
   18.2975    188.76    200.28    -40.16     24.00
   18.3076    197.99    202.91    -33.57     24.00
   18.3178    199.32    205.57    -34.90     24.00
   18.3280    200.01    208.23    -36.87     24.00
   18.3381    204.96    210.86    -34.54     24.00
   18.3483    209.83    213.49    -32.31     24.00
   18.3585    207.96    216.11    -36.80     24.00
   18.3686    214.47    218.69    -32.86     24.00
   18.3788    216.57    221.26    -33.33     24.00
   18.3889    215.20    223.77    -37.21     24.00
   18.3991    223.35    226.26    -31.56     24.00
   18.4093    227.55    228.72    -29.81     24.00
   18.4194    228.77    231.10    -30.97     24.00
   18.4296    233.62    233.44    -28.47     24.00
   18.4398    232.80    235.73    -31.57     24.00
   18.4499    236.65    237.93    -29.92     24.00
   18.4601    243.23    240.07    -25.49     24.00
   18.4703    244.29    242.14    -26.50     24.00
   18.4804    245.93    244.11    -26.82     24.00
   18.4906    249.74    246.00    -24.91     24.00
   18.5008    255.41    247.81    -21.04     24.00
   18.5109    254.66    249.49    -23.48     24.00
   18.5211    257.57    251.09    -22.17     24.00
   18.5312    257.83    252.57    -23.38     24.00
   18.5414    259.80    253.95    -22.79     24.00
   18.5516    267.07    255.21    -16.78     24.00
   18.5617    262.15    256.33    -22.83     24.00
   18.5719    264.04    257.35    -21.95     24.00
   18.5821    268.55    258.23    -18.33     24.00
   18.5922    267.31    258.98    -20.31     24.00
   18.6024    269.02    259.60    -19.22     24.00
   18.6126    271.56    260.08    -17.17     24.00
   18.6227    273.19    260.42    -15.88     24.00
   18.6329    269.70    260.63    -19.58     24.00
   18.6431    271.76    260.70    -17.58     24.00
   18.6532    271.67    260.63    -17.60     24.00
   18.6634    267.33    260.41    -21.73     24.00
   18.6736    269.94    260.06    -18.77     24.00
   18.6837    270.63    259.57    -17.59     24.00
   18.6939    268.20    258.95    -19.39     24.00
   18.7040    266.32    258.19    -20.52     24.00
   18.7142    264.48    257.30    -21.46     24.00
   18.7244    263.81    256.27    -21.11     24.00
   18.7345    261.12    255.14    -22.66     24.00
   18.7447    259.95    253.86    -22.56     24.00
   18.7549    256.12    252.47    -25.00     24.00
   18.7650    256.72    250.98    -22.91     24.00
   18.7752    254.52    249.36    -23.49     24.00
   18.7854    249.21    247.64    -27.08     24.00
   18.7955    249.04    245.84    -25.44     24.00
   18.8057    244.94    243.92    -27.62     24.00
   18.8159    240.17    241.91    -30.38     24.00
   18.8260    236.44    239.84    -32.04     24.00
   18.8362    234.42    237.66    -31.89     24.00
   18.8463    230.78    235.44    -33.30     24.00
   18.8565    228.88    233.12    -32.89     24.00
   18.8667    229.03    230.75    -30.36     24.00
   18.8768    220.71    228.34    -36.27     24.00
   18.8870    218.75    225.85    -35.75     24.00
   18.8972    214.10    223.32    -37.87     24.00
   18.9073    212.70    220.78    -36.73     24.00
   18.9175    210.97    218.18    -35.85     24.00
   18.9277    207.16    215.55    -37.03     24.00
   18.9378    203.63    212.92    -37.93     24.00
   18.9480    201.64    210.24    -37.25     24.00
   18.9582    200.29    207.56    -35.91     24.00
   18.9683    194.48    204.89    -39.06     24.00
   18.9785    193.45    202.20    -37.39     24.00
   18.9887    191.67    199.50    -36.48     24.00
   18.9988    185.47    196.84    -40.02     24.00
   19.0090    185.16    194.17    -37.65     24.00
   19.0191    182.55    191.54    -37.63     24.00
   19.0293    180.02    188.90    -37.52     24.00
   19.0395    179.24    186.28    -35.69     24.00
   19.0496    177.99    183.72    -34.37     24.00
   19.0598    173.99    181.16    -35.82     24.00
   19.0700    173.09    178.64    -34.20     24.00
   19.0801    168.77    176.18    -36.06     24.00
   19.0903    167.97    173.74    -34.41     24.00
   19.1005    167.70    171.34    -32.28     24.00
   19.1106    165.17    169.01    -32.48     24.00
   19.1208    162.29    166.70    -33.06     24.00
   19.1310    162.02    164.45    -31.07     24.00
   19.1411    159.83    162.27    -31.08     24.00
   19.1513    158.74    160.12    -30.03     24.00
   19.1614    155.60    158.05    -31.10     24.00
   19.1716    153.85    156.02    -30.81     24.00
   19.1818    155.60    154.04    -27.09     24.00
   19.1919    152.85    152.15    -27.94     24.00
   19.2021    152.04    150.29    -26.90     24.00
   19.2123    149.73    148.50    -27.42     24.00
   19.2224    148.62    146.79    -26.82     24.00
   19.2326    145.51    145.12    -28.26     24.00
   19.2428    145.88    143.52    -26.28     24.00
   19.2529    144.81    141.99    -25.82     24.00
   19.2631    146.70    140.51    -22.45     24.00
   19.2733    142.13    139.09    -25.60     24.00
   19.2834    143.83    137.75    -22.56     24.00
   19.2936    141.46    136.45    -23.64     24.00
   19.3038    139.91    135.21    -23.95     24.00
   19.3139    140.63    134.05    -22.07     24.00
   19.3241    138.42    132.94    -23.16     24.00
   19.3342    139.13    131.89    -21.41     24.00
   19.3444    137.45    130.89    -22.09     24.00
   19.3546    137.04    129.95    -21.55     24.00
   19.3647    135.56    129.07    -22.16     24.00
   19.3749    135.43    128.24    -21.45     24.00
   19.3851    136.85    127.46    -19.25     24.00
   19.3952    134.57    126.73    -20.81     24.00
   19.4054    133.70    126.06    -21.00     24.00
   19.4156    134.14    125.43    -19.93     24.00
   19.4257    131.68    124.85    -21.82     24.00
   19.4359    132.80    124.32    -20.17     24.00
   19.4461    132.10    123.83    -20.38     24.00
   19.4562    130.68    123.39    -21.36     24.00
   19.4664    131.94    122.99    -19.69     24.00
   19.4765    131.61    122.63    -19.67     24.00
   19.4867    129.05    122.31    -21.90     24.00
   19.4969    128.67    122.02    -22.00     24.00
   19.5070    127.31    121.78    -23.11     24.00
   19.5172    128.57    121.57    -21.64     24.00
   19.5274    129.66    121.39    -20.38     24.00
   19.5375    128.46    121.25    -21.43     24.00
   19.5477    129.29    121.13    -20.49     24.00
   19.5579    128.28    121.05    -21.42     24.00
   19.5680    126.65    121.00    -22.99     24.00
   19.5782    126.90    120.97    -22.72     24.00
   19.5884    127.41    120.97    -22.21     24.00
   19.5985    128.27    121.00    -21.38     24.00
   19.6087    126.43    121.05    -23.27     24.00
   19.6188    125.84    121.12    -23.93     24.00
   19.6290    128.37    121.22    -21.50     24.00
   19.6392    126.51    121.34    -23.47     24.00
   19.6493    127.06    121.47    -23.06     24.00
   19.6595    125.85    121.63    -24.43     24.00
   19.6697    124.63    121.80    -25.82     24.00
   19.6798    124.46    121.99    -26.18     24.00
   19.6900    125.79    122.20    -25.06     24.00
   19.7002    125.58    122.43    -25.49     24.00
   19.7103    124.20    122.66    -27.11     24.00
   19.7205    126.27    122.91    -25.29     24.00
   19.7307    124.46    123.18    -27.36     24.00
   19.7408    123.82    123.45    -28.28     24.00
   19.7510    125.83    123.74    -26.56     24.00
   19.7612    125.32    124.04    -27.37     24.00
   19.7713    125.43    124.35    -27.56     24.00
   19.7815    123.40    124.67    -29.91     24.00
   19.7916    123.87    124.99    -29.77     24.00
   19.8018    123.64    125.33    -30.34     24.00
   19.8120    126.41    125.67    -27.91     24.00
   19.8221    124.04    126.02    -30.63     24.00
   19.8323    124.91    126.38    -30.11     24.00
   19.8425    123.88    126.74    -31.51     24.00
   19.8526    124.74    127.11    -31.01     24.00
   19.8628    126.41    127.48    -29.72     24.00
   19.8730    125.88    127.86    -30.62     24.00
   19.8831    125.23    128.24    -31.65     24.00
   19.8933    126.05    128.62    -31.22     24.00
   19.9035    127.14    129.01    -30.52     24.00
   19.9136    125.60    129.40    -32.44     24.00
   19.9238    127.02    129.79    -31.42     24.00
   19.9339    124.48    130.18    -34.35     24.00
   19.9441    127.43    130.58    -31.79     24.00
   19.9543    126.66    130.97    -32.96     24.00
   19.9644    127.18    131.36    -32.83     24.00
   19.9746    128.34    131.76    -32.06     24.00
   19.9848    125.54    132.15    -35.26     24.00
   19.9949    126.70    132.54    -34.49     24.00
   20.0051    126.48    132.94    -35.10     24.00
   20.0153    128.71    133.33    -33.26     24.00
   20.0254    128.30    133.71    -34.06     24.00
   20.0356    127.90    134.10    -34.84     24.00
   20.0458    128.58    134.48    -34.55     24.00
   20.0559    128.81    134.86    -34.69     24.00
   20.0661    128.30    135.23    -35.58     24.00
   20.0763    130.99    135.60    -33.26     24.00
   20.0864    129.14    135.97    -35.47     24.00
   20.0966    128.65    136.33    -36.32     24.00
   20.1067    132.37    136.68    -32.96     24.00
   20.1169    130.99    137.03    -34.69     24.00
   20.1271    129.39    137.37    -36.63     24.00
   20.1372    132.02    137.71    -34.33     24.00
   20.1474    132.84    138.04    -33.85     24.00
   20.1576    134.58    138.36    -32.43     24.00
   20.1677    134.14    138.68    -33.18     24.00
   20.1779    133.40    138.99    -34.23     24.00
   20.1881    133.53    139.29    -34.40     24.00
   20.1982    135.09    139.57    -33.13     24.00
   20.2084    136.02    139.86    -32.48     24.00
   20.2186    133.72    140.13    -35.06     24.00
   20.2287    135.59    140.39    -33.45     24.00
   20.2389    135.68    140.65    -33.61     24.00
   20.2490    135.18    140.89    -34.36     24.00
   20.2592    138.14    141.12    -31.63     24.00
   20.2694    139.41    141.35    -30.58     24.00
   20.2795    137.41    141.56    -32.79     24.00
   20.2897    137.26    141.76    -33.14     24.00
   20.2999    141.02    141.95    -29.57     24.00
   20.3100    138.34    142.12    -32.43     24.00
   20.3202    142.72    142.29    -28.21     24.00
   20.3304    142.20    142.44    -28.89     24.00
   20.3405    139.91    142.58    -31.31     24.00
   20.3507    140.18    142.71    -31.17     24.00
   20.3609    142.47    142.82    -29.00     24.00
   20.3710    141.02    142.92    -30.55     24.00
   20.3812    142.05    143.01    -29.61     24.00
   20.3914    144.18    143.09    -27.55     24.00
   20.4015    141.05    143.15    -30.74     24.00
   20.4117    142.43    143.20    -29.41     24.00
   20.4218    144.96    143.23    -26.92     24.00
   20.4320    144.71    143.25    -27.19     24.00
   20.4422    143.79    143.26    -28.11     24.00
   20.4523    143.70    143.25    -28.20     24.00
   20.4625    143.46    143.23    -28.42     24.00
   20.4727    145.73    143.19    -26.11     24.00
   20.4828    148.36    143.15    -23.43     24.00
   20.4930    143.72    143.08    -28.01     24.00
   20.5032    146.93    143.01    -24.72     24.00
   20.5133    148.46    142.92    -23.10     24.00
   20.5235    147.07    142.81    -24.39     24.00
   20.5337    147.73    142.69    -23.61     24.00
   20.5438    148.34    142.56    -22.87     24.00
   20.5540    146.76    142.42    -24.30     24.00
   20.5641    147.52    142.26    -23.38     24.00
   20.5743    148.59    142.09    -22.14     24.00
   20.5845    147.57    141.90    -22.98     24.00
   20.5946    147.30    141.70    -23.05     24.00
   20.6048    147.63    141.49    -22.51     24.00
   20.6150    147.04    141.27    -22.88     24.00
   20.6251    146.51    141.04    -23.17     24.00
   20.6353    146.20    140.79    -23.23     24.00
   20.6455    147.01    140.53    -22.16     24.00
   20.6556    147.08    140.26    -21.83     24.00
   20.6658    144.33    139.98    -24.29     24.00
   20.6760    146.62    139.68    -21.71     24.00
   20.6861    144.31    139.38    -23.72     24.00
   20.6963    145.10    139.07    -22.61     24.00
   20.7065    143.84    138.74    -23.55     24.00
   20.7166    143.56    138.41    -23.50     24.00
   20.7268    144.02    138.07    -22.69     24.00
   20.7369    141.52    137.72    -24.84     24.00
   20.7471    142.55    137.35    -23.45     24.00
   20.7573    141.40    136.98    -24.23     24.00
   20.7674    138.51    136.61    -26.75     24.00
   20.7776    141.87    136.22    -23.00     24.00
   20.7878    140.21    135.83    -24.26     24.00
   20.7979    138.68    135.43    -25.40     24.00
   20.8081    139.04    135.02    -24.63     24.00
   20.8183    139.56    134.61    -23.70     24.00
   20.8284    136.12    134.19    -26.72     24.00
   20.8386    136.95    133.77    -25.47     24.00
   20.8488    137.64    133.34    -24.34     24.00
   20.8589    134.35    132.91    -27.20     24.00
   20.8691    134.02    132.47    -27.09     24.00
   20.8792    132.88    132.03    -27.80     24.00
   20.8894    132.18    131.58    -28.05     24.00
   20.8996    131.62    131.13    -28.16     24.00
   20.9097    132.30    130.68    -27.03     24.00
   20.9199    129.69    130.23    -29.19     24.00
   20.9301    130.55    129.77    -27.87     24.00
   20.9402    130.88    129.32    -27.08     24.00
   20.9504    129.97    128.86    -27.54     24.00
   20.9606    127.59    128.40    -29.45     24.00
   20.9707    125.90    127.94    -30.69     24.00
   20.9809    126.82    127.48    -29.31     24.00
   20.9911    127.71    127.02    -27.96     24.00
   21.0012    125.01    126.57    -30.20     24.00
   21.0114    124.92    126.11    -29.84     24.00
   21.0216    126.21    125.66    -28.09     24.00
   21.0317    125.79    125.21    -28.06     24.00
   21.0419    123.61    124.76    -29.79     24.00
   21.0520    123.08    124.31    -29.88     24.00
   21.0622    121.64    123.87    -30.87     24.00
   21.0724    120.37    123.43    -31.70     24.00
   21.0825    122.60    122.99    -29.04     24.00
   21.0927    122.15    122.56    -29.06     24.00
   21.1029    119.94    122.14    -30.84     24.00
   21.1130    120.80    121.72    -29.57     24.00
   21.1232    120.59    121.30    -29.36     24.00
   21.1334    118.16    120.89    -31.38     24.00
   21.1435    118.42    120.50    -30.72     24.00
   21.1537    118.01    120.10    -30.74     24.00
   21.1639    115.46    119.71    -32.90     24.00
   21.1740    117.52    119.34    -30.46     24.00
   21.1842    117.45    118.97    -30.16     24.00
   21.1943    116.41    118.61    -30.84     24.00
   21.2045    115.73    118.25    -31.17     24.00
   21.2147    115.81    117.91    -30.74     24.00
   21.2248    114.86    117.58    -31.36     24.00
   21.2350    114.82    117.25    -31.08     24.00
   21.2452    115.89    116.94    -29.69     24.00
   21.2553    113.34    116.64    -31.94     24.00
   21.2655    113.96    116.35    -31.03     24.00
   21.2757    114.73    116.07    -29.98     24.00
   21.2858    112.98    115.80    -31.47     24.00
   21.2960    112.49    115.55    -31.70     24.00
   21.3062    112.86    115.30    -31.09     24.00
   21.3163    112.29    115.08    -31.43     24.00
   21.3265    113.62    114.86    -29.89     24.00
   21.3366    113.40    114.66    -29.91     24.00
   21.3468    112.38    114.48    -30.74     24.00
   21.3570    111.28    114.30    -31.67     24.00
   21.3671    112.24    114.15    -30.55     24.00
   21.3773    111.74    114.00    -30.91     24.00
   21.3875    112.51    113.88    -30.01     24.00
   21.3976    112.43    113.77    -29.98     24.00
   21.4078    111.43    113.67    -30.89     24.00
   21.4180    111.66    113.60    -30.58     24.00
   21.4281    110.76    113.53    -31.42     24.00
   21.4383    111.79    113.49    -30.35     24.00
   21.4485    111.88    113.46    -30.23     24.00
   21.4586    112.35    113.46    -29.75     24.00
   21.4688    109.62    113.46    -32.49     24.00
   21.4790    112.53    113.49    -29.61     24.00
   21.4891    113.34    113.54    -28.84     24.00
   21.4993    110.40    113.60    -31.85     24.00
   21.5094    112.37    113.68    -29.96     24.00
   21.5196    112.34    113.79    -30.09     24.00
   21.5298    111.75    113.91    -30.80     24.00
   21.5399    112.68    114.05    -30.01     24.00
   21.5501    113.18    114.21    -29.67     24.00
   21.5603    111.15    114.39    -31.89     24.00
   21.5704    112.75    114.59    -30.48     24.00
   21.5806    114.60    114.81    -28.86     24.00
   21.5908    112.62    115.05    -31.08     24.00
   21.6009    112.27    115.31    -31.69     24.00
   21.6111    113.68    115.59    -30.56     24.00
   21.6213    113.54    115.89    -31.00     24.00
   21.6314    114.12    116.21    -30.74     24.00
   21.6416    115.34    116.56    -29.86     24.00
   21.6517    114.84    116.92    -30.72     24.00
   21.6619    115.54    117.30    -30.41     24.00
   21.6721    116.87    117.71    -29.48     24.00
   21.6822    115.95    118.13    -30.82     24.00
   21.6924    117.84    118.57    -29.38     24.00
   21.7026    118.48    119.04    -29.20     24.00
   21.7127    117.92    119.52    -30.24     24.00
   21.7229    116.46    120.02    -32.21     24.00
   21.7331    120.68    120.55    -28.51     24.00
   21.7432    120.15    121.09    -29.58     24.00
   21.7534    121.83    121.65    -28.47     24.00
   21.7636    120.92    122.23    -29.96     24.00
   21.7737    121.76    122.83    -29.71     24.00
   21.7839    123.76    123.45    -28.33     24.00
   21.7941    124.56    124.09    -28.17     24.00
   21.8042    124.62    124.74    -28.76     24.00
   21.8144    126.35    125.41    -27.70     24.00
   21.8245    124.80    126.09    -29.94     24.00
   21.8347    124.62    126.80    -30.82     24.00
   21.8449    127.73    127.52    -28.44     24.00
   21.8550    128.63    128.25    -28.27     24.00
   21.8652    126.12    129.00    -31.53     24.00
   21.8754    129.78    129.77    -28.64     24.00
   21.8855    129.26    130.54    -29.93     24.00
   21.8957    128.16    131.34    -31.82     24.00
   21.9059    133.15    132.14    -27.64     24.00
   21.9160    131.09    132.95    -30.51     24.00
   21.9262    130.94    133.78    -31.49     24.00
   21.9364    133.30    134.62    -29.97     24.00
   21.9465    136.00    135.47    -28.11     24.00
   21.9567    134.21    136.32    -30.76     24.00
   21.9668    138.48    137.18    -27.35     24.00
   21.9770    137.17    138.06    -29.53     24.00
   21.9872    136.39    138.94    -31.19     24.00
   21.9973    138.76    139.81    -29.70     24.00
   22.0075    138.97    140.70    -30.38     24.00
   22.0177    140.57    141.60    -29.67     24.00
   22.0278    143.26    142.48    -27.87     24.00
   22.0380    142.30    143.38    -29.73     24.00
   22.0482    142.74    144.28    -30.19     24.00
   22.0583    146.38    145.17    -27.44     24.00
   22.0685    145.95    146.07    -28.76     24.00
   22.0787    146.31    146.96    -29.30     24.00
   22.0888    148.43    147.85    -28.06     24.00
   22.0990    150.20    148.73    -27.18     24.00
   22.1092    150.13    149.61    -28.13     24.00
   22.1193    152.37    150.48    -26.76     24.00
   22.1295    152.78    151.35    -27.21     24.00
   22.1396    151.67    152.20    -29.17     24.00
   22.1498    156.83    153.04    -24.86     24.00
   22.1600    155.61    153.88    -26.92     24.00
   22.1701    155.55    154.70    -27.79     24.00
   22.1803    160.13    155.51    -24.02     24.00
   22.1905    158.74    156.30    -26.21     24.00
   22.2006    157.74    157.07    -27.98     24.00
   22.2108    160.63    157.84    -25.85     24.00
   22.2210    161.53    158.58    -25.70     24.00
   22.2311    161.24    159.30    -26.71     24.00
   22.2413    164.39    160.00    -24.26     24.00
   22.2515    163.55    160.69    -25.78     24.00
   22.2616    163.53    161.34    -26.46     24.00
   22.2718    165.40    161.98    -25.22     24.00
   22.2819    168.81    162.58    -22.42     24.00
   22.2921    164.19    163.17    -27.62     24.00
   22.3023    167.23    163.73    -25.14     24.00
   22.3124    169.70    164.25    -23.20     24.00
   22.3226    165.93    164.75    -27.47     24.00
   22.3328    170.27    165.22    -23.60     24.00
   22.3429    170.02    165.66    -24.29     24.00
   22.3531    168.99    166.07    -25.72     24.00
   22.3633    169.99    166.44    -25.10     24.00
   22.3734    171.55    166.78    -23.88     24.00
   22.3836    170.02    167.09    -25.72     24.00
   22.3938    171.58    167.36    -24.43     24.00
   22.4039    171.66    167.60    -24.59     24.00
   22.4141    170.30    167.80    -26.15     24.00
   22.4243    171.49    167.97    -25.12     24.00
   22.4344    172.59    168.09    -24.15     24.00
   22.4446    171.52    168.18    -25.31     24.00
   22.4547    169.46    168.23    -27.42     24.00
   22.4649    173.01    168.25    -23.88     24.00
   22.4751    169.20    168.22    -27.67     24.00
   22.4852    173.14    168.16    -23.67     24.00
   22.4954    170.02    168.06    -26.68     24.00
   22.5056    169.20    167.92    -27.36     24.00
   22.5157    170.53    167.74    -25.85     24.00
   22.5259    168.71    167.52    -27.46     24.00
   22.5361    167.72    167.26    -28.19     24.00
   22.5462    166.60    166.97    -29.02     24.00
   22.5564    168.70    166.64    -26.58     24.00
   22.5666    165.99    166.26    -28.92     24.00
   22.5767    165.84    165.86    -28.67     24.00
   22.5869    165.09    165.41    -28.97     24.00
   22.5970    161.96    164.94    -31.62     24.00
   22.6072    162.01    164.42    -31.06     24.00
   22.6174    163.90    163.87    -28.62     24.00
   22.6275    161.38    163.29    -30.55     24.00
   22.6377    161.80    162.67    -29.52     24.00
   22.6479    160.77    162.02    -29.89     24.00
   22.6580    159.49    161.34    -30.50     24.00
   22.6682    159.32    160.62    -29.95     24.00
   22.6784    159.32    159.88    -29.20     24.00
   22.6885    155.72    159.11    -32.04     24.00
   22.6987    155.20    158.31    -31.75     24.00
   22.7089    155.45    157.48    -30.67     24.00
   22.7190    151.84    156.63    -33.44     24.00
   22.7292    153.24    155.75    -31.15     24.00
   22.7394    153.54    154.84    -29.95     24.00
   22.7495    149.80    153.92    -32.77     24.00
   22.7597    150.21    152.97    -31.41     24.00
   22.7698    147.17    152.01    -33.49     24.00
   22.7800    144.53    151.02    -35.13     24.00
   22.7902    147.16    150.01    -31.49     24.00
   22.8003    147.40    148.99    -30.24     24.00
   22.8105    146.21    147.95    -30.38     24.00
   22.8207    142.08    146.89    -33.45     24.00
   22.8308    141.82    145.82    -32.65     24.00
   22.8410    140.40    144.74    -32.98     24.00
   22.8512    139.93    143.64    -32.35     24.00
   22.8613    139.68    142.54    -31.50     24.00
   22.8715    137.74    141.42    -32.32     24.00
   22.8817    136.85    140.29    -32.09     24.00
   22.8918    134.39    139.17    -33.42     24.00
   22.9020    133.84    138.02    -32.83     24.00
   22.9121    134.10    136.88    -31.43     24.00
   22.9223    133.45    135.73    -30.93     24.00
   22.9325    130.25    134.57    -32.97     24.00
   22.9426    130.38    133.43    -31.69     24.00
   22.9528    129.30    132.26    -31.61     24.00
   22.9630    125.71    131.10    -34.04     24.00
   22.9731    127.55    129.95    -31.05     24.00
   22.9833    127.17    128.79    -30.27     24.00
   22.9935    124.57    127.63    -31.71     24.00
   23.0036    122.71    126.49    -32.42     24.00
   23.0138    123.93    125.34    -30.05     24.00
   23.0240    122.72    124.19    -30.11     24.00
   23.0341    120.57    123.06    -31.13     24.00
   23.0443    119.48    121.92    -31.09     24.00
   23.0545    117.98    120.79    -31.46     24.00
   23.0646    119.45    119.68    -28.87     24.00
   23.0748    119.02    118.56    -28.19     24.00
   23.0849    115.10    117.47    -31.01     24.00
   23.0951    116.98    116.37    -28.04     24.00
   23.1053    114.40    115.28    -29.53     24.00
   23.1154    111.88    114.22    -30.98     24.00
   23.1256    112.11    113.15    -29.69     24.00
   23.1358    112.90    112.10    -27.85     24.00
   23.1459    109.83    111.07    -29.88     24.00
   23.1561    111.23    110.04    -27.45     24.00
   23.1663    109.50    109.02    -28.17     24.00
   23.1764    109.99    108.03    -26.68     24.00
   23.1866    108.23    107.04    -27.45     24.00
   23.1968    105.46    106.06    -29.25     24.00
   23.2069    104.81    105.11    -28.94     24.00
   23.2171    105.27    104.16    -27.54     24.00
   23.2272    105.72    103.24    -26.16     24.00
   23.2374    104.64    102.32    -26.33     24.00
   23.2476    103.10    101.42    -26.96     24.00
   23.2577    101.75    100.54    -27.43     24.00
   23.2679    101.82     99.67    -26.49     24.00
   23.2781     99.42     98.81    -28.03     24.00
   23.2882     98.91     97.98    -27.71     24.00
   23.2984    100.10     97.15    -25.70     24.00
   23.3086     98.53     96.34    -26.46     24.00
   23.3187     99.22     95.56    -24.98     24.00
   23.3289     97.35     94.78    -26.07     24.00
   23.3391     98.05     94.02    -24.61     24.00
   23.3492     95.96     93.28    -25.96     24.00
   23.3594     95.28     92.55    -25.91     24.00
   23.3695     93.06     91.84    -27.42     24.00
   23.3797     92.88     91.14    -26.90     24.00
   23.3899     93.62     90.46    -25.48     24.00
   23.4000     95.43     89.79    -23.01     24.00
   23.4102     91.71     89.14    -26.08     24.00
   23.4204     92.27     88.50    -24.88     24.00
   23.4305     92.13     87.88    -24.40     24.00
   23.4407     90.72     87.28    -25.20     24.00
   23.4509     91.74     86.68    -23.59     24.00
   23.4610     89.12     86.11    -25.63     24.00
   23.4712     88.71     85.54    -25.48     24.00
   23.4814     88.76     84.99    -24.88     24.00
   23.4915     87.95     84.46    -25.16     24.00
   23.5017     86.70     83.94    -25.88     24.00
   23.5119     86.69     83.43    -25.38     24.00
   23.5220     86.41     82.93    -25.17     24.00
   23.5322     85.10     82.45    -25.99     24.00
   23.5423     83.74     81.98    -26.89     24.00
   23.5525     83.83     81.52    -26.34     24.00
   23.5627     84.66     81.07    -25.06     24.00
   23.5728     82.95     80.64    -26.34     24.00
   23.5830     84.23     80.22    -24.63     24.00
   23.5932     84.45     79.80    -24.00     24.00
   23.6033     81.38     79.40    -26.67     24.00
   23.6135     82.00     79.01    -25.66     24.00
   23.6237     82.20     78.63    -25.08     24.00
   23.6338     81.20     78.26    -25.71     24.00
   23.6440     80.59     77.90    -25.96     24.00
   23.6542     81.09     77.55    -25.11     24.00
   23.6643     81.24     77.21    -24.62     24.00
   23.6745     79.66     76.88    -25.86     24.00
   23.6846     79.84     76.56    -25.36     24.00
   23.6948     79.16     76.24    -25.73     24.00
   23.7050     78.00     75.93    -26.58     24.00
   23.7151     78.15     75.63    -26.13     24.00
   23.7253     76.52     75.34    -27.47     24.00
   23.7355     77.60     75.06    -26.10     24.00
   23.7456     77.13     74.78    -26.30     24.00
   23.7558     77.38     74.51    -25.78     24.00
   23.7660     75.30     74.25    -27.59     24.00
   23.7761     77.38     73.99    -25.26     24.00
   23.7863     75.78     73.74    -26.61     24.00
   23.7965     75.61     73.50    -26.53     24.00
   23.8066     75.78     73.26    -26.13     24.00
   23.8168     74.59     73.03    -27.09     24.00
   23.8270     74.37     72.80    -27.08     24.00
   23.8371     73.54     72.58    -27.69     24.00
   23.8473     74.26     72.36    -26.75     24.00
   23.8574     74.13     72.15    -26.67     24.00
   23.8676     73.27     71.94    -27.32     24.00
   23.8778     72.81     71.74    -27.58     24.00
   23.8879     73.03     71.54    -27.16     24.00
   23.8981     72.66     71.35    -27.33     24.00
   23.9083     72.70     71.16    -27.10     24.00
   23.9184     72.30     70.97    -27.32     24.00
   23.9286     72.45     70.79    -26.98     24.00
   23.9388     71.07     70.61    -28.18     24.00
   23.9489     70.67     70.43    -28.41     24.00
   23.9591     71.04     70.26    -27.86     24.00
   23.9693     71.28     70.09    -27.45     24.00
   23.9794     69.59     69.92    -28.98     24.00
   23.9896     70.05     69.76    -28.35     24.00
   23.9997     69.52     69.60    -28.72     24.00
   24.0099     68.63     69.44    -29.45     24.00
   24.0201     69.40     69.28    -28.52     24.00
   24.0302     69.99     69.12    -27.78     24.00
   24.0404     69.64     68.97    -27.98     24.00
   24.0506     68.87     68.82    -28.60     24.00
   24.0607     67.60     68.67    -29.72     24.00
   24.0709     67.99     68.53    -29.18     24.00
   24.0811     68.62     68.38    -28.41     24.00
   24.0912     68.99     68.24    -27.90     24.00
   24.1014     68.15     68.10    -28.59     24.00
   24.1116     66.84     67.96    -29.76     24.00
   24.1217     65.78     67.82    -30.69     24.00
   24.1319     67.91     67.68    -28.42     24.00
   24.1421     66.68     67.55    -29.51     24.00
   24.1522     66.80     67.41    -29.26     24.00
   24.1624     66.37     67.28    -29.56     24.00
   24.1725     66.65     67.15    -29.15     24.00
   24.1827     66.50     67.02    -29.17     24.00
   24.1929     65.87     66.89    -29.67     24.00
   24.2030     66.62     66.76    -28.79     24.00
   24.2132     66.52     66.64    -28.76     24.00
   24.2234     64.30     66.51    -30.86     24.00
   24.2335     64.86     66.38    -30.17     24.00
   24.2437     64.95     66.26    -29.96     24.00
   24.2539     64.68     66.14    -30.10     24.00
   24.2640     65.14     66.01    -29.52     24.00
   24.2742     63.73     65.89    -30.81     24.00
   24.2844     64.87     65.77    -29.55     24.00
   24.2945     63.77     65.65    -30.53     24.00
   24.3047     64.10     65.53    -30.08     24.00
   24.3148     62.80     65.41    -31.26     24.00
   24.3250     63.78     65.29    -30.16     24.00
   24.3352     63.66     65.17    -30.16     24.00
   24.3453     64.27     65.06    -29.43     24.00
   24.3555     63.67     64.94    -29.92     24.00
   24.3657     63.62     64.82    -29.85     24.00
   24.3758     61.93     64.71    -31.42     24.00
   24.3860     61.96     64.59    -31.28     24.00
   24.3962     62.81     64.48    -30.31     24.00
   24.4063     64.00     64.36    -29.01     24.00
   24.4165     61.78     64.25    -31.11     24.00
   24.4267     62.57     64.13    -30.21     24.00
   24.4368     62.24     64.02    -30.43     24.00
   24.4470     61.73     63.91    -30.82     24.00
   24.4572     61.35     63.80    -31.09     24.00
   24.4673     62.37     63.68    -29.96     24.00
   24.4775     61.26     63.57    -30.96     24.00
   24.4876     61.84     63.46    -30.27     24.00
   24.4978     62.43     63.35    -29.57     24.00
   24.5080     61.13     63.24    -30.76     24.00
   24.5181     60.01     63.13    -31.77     24.00
   24.5283     60.62     63.02    -31.05     24.00
   24.5385     60.44     62.91    -31.12     24.00
   24.5486     60.24     62.80    -31.21     24.00
   24.5588     60.12     62.69    -31.22     24.00
   24.5690     60.98     62.59    -30.25     24.00
   24.5791     59.63     62.48    -31.49     24.00
   24.5893     60.95     62.37    -30.07     24.00
   24.5995     60.07     62.26    -30.84     24.00
   24.6096     61.01     62.16    -29.79     24.00
   24.6198     60.16     62.05    -30.54     24.00
   24.6299     60.76     61.94    -29.83     24.00
   24.6401     61.16     61.84    -29.32     24.00
   24.6503     59.08     61.73    -31.30     24.00
   24.6604     58.87     61.63    -31.40     24.00
   24.6706     60.15     61.52    -30.02     24.00
   24.6808     59.03     61.42    -31.03     24.00
   24.6909     59.85     61.31    -30.11     24.00
   24.7011     60.20     61.21    -29.65     24.00
   24.7113     59.12     61.10    -30.63     24.00
   24.7214     59.38     61.00    -30.27     24.00
   24.7316     59.07     60.90    -30.47     24.00
   24.7418     59.33     60.79    -30.11     24.00
   24.7519     58.29     60.69    -31.05     24.00
   24.7621     58.86     60.59    -30.37     24.00
   24.7723     57.99     60.49    -31.14     24.00
   24.7824     58.66     60.38    -30.37     24.00
   24.7926     58.09     60.28    -30.84     24.00
   24.8027     58.76     60.18    -30.07     24.00
   24.8129     58.45     60.08    -30.28     24.00
   24.8231     57.45     59.98    -31.18     24.00
   24.8332     57.72     59.88    -30.81     24.00
   24.8434     58.55     59.78    -29.88     24.00
   24.8536     57.80     59.68    -30.53     24.00
   24.8637     57.70     59.58    -30.53     24.00
   24.8739     57.62     59.48    -30.51     24.00
   24.8841     57.76     59.38    -30.27     24.00
   24.8942     58.63     59.28    -29.30     24.00
   24.9044     58.12     59.19    -29.71     24.00
   24.9146     58.15     59.09    -29.58     24.00
   24.9247     59.65     58.99    -27.99     24.00
   24.9349     58.18     58.89    -29.36     24.00
   24.9450     57.61     58.80    -29.83     24.00
   24.9552     56.22     58.70    -31.13     24.00
   24.9654     56.99     58.60    -30.26     24.00
   24.9755     56.78     58.51    -30.37     24.00
   24.9857     57.11     58.41    -29.95     24.00
   24.9959     57.38     58.32    -29.58     24.00
   25.0060     57.48     58.22    -29.39     24.00
   25.0162     56.41     58.13    -30.36     24.00
   25.0264     57.22     58.03    -29.46     24.00
   25.0365     56.99     57.94    -29.59     24.00
   25.0467     56.87     57.84    -29.62     24.00
   25.0569     56.90     57.75    -29.50     24.00
   25.0670     56.05     57.66    -30.25     24.00
   25.0772     56.87     57.56    -29.34     24.00
   25.0874     55.37     57.47    -30.75     24.00
   25.0975     57.60     57.38    -28.43     24.00
   25.1077     56.71     57.29    -29.22     24.00
   25.1178     56.54     57.20    -29.30     24.00
   25.1280     56.00     57.11    -29.75     24.00
   25.1382     56.62     57.01    -29.04     24.00
   25.1483     56.34     56.92    -29.23     24.00
   25.1585     56.15     56.83    -29.33     24.00
   25.1687     55.85     56.74    -29.54     24.00
   25.1788     55.84     56.66    -29.46     24.00
   25.1890     55.47     56.57    -29.74     24.00
   25.1992     56.93     56.48    -28.19     24.00
   25.2093     56.74     56.39    -28.30     24.00
   25.2195     56.28     56.30    -28.67     24.00
   25.2297     55.98     56.21    -28.88     24.00
   25.2398     56.12     56.13    -28.65     24.00
   25.2500     54.46     56.04    -30.23     24.00
   25.2601     55.53     55.95    -29.07     24.00
   25.2703     54.95     55.87    -29.56     24.00
   25.2805     54.36     55.78    -30.07     24.00
   25.2906     54.60     55.70    -29.74     24.00
   25.3008     54.14     55.61    -30.12     24.00
   25.3110     54.76     55.53    -29.41     24.00
   25.3211     55.14     55.44    -28.95     24.00
   25.3313     56.05     55.36    -27.95     24.00
   25.3415     55.39     55.27    -28.53     24.00
   25.3516     55.24     55.19    -28.60     24.00
   25.3618     55.37     55.11    -28.38     24.00
   25.3720     54.95     55.03    -28.72     24.00
   25.3821     54.47     54.94    -29.12     24.00
   25.3923     55.12     54.86    -28.39     24.00
   25.4024     55.16     54.78    -28.27     24.00
   25.4126     55.36     54.70    -27.99     24.00
   25.4228     54.74     54.62    -28.53     24.00
   25.4329     54.05     54.54    -29.14     24.00
   25.4431     55.41     54.46    -27.70     24.00
   25.4533     55.75     54.38    -27.28     24.00
   25.4634     55.40     54.30    -27.55     24.00
   25.4736     54.65     54.22    -28.22     24.00
   25.4838     55.34     54.15    -27.45     24.00
   25.4939     54.76     54.07    -27.95     24.00
   25.5041     54.53     53.99    -28.11     24.00
   25.5143     54.12     53.91    -28.44     24.00
   25.5244     54.12     53.84    -28.36     24.00
   25.5346     54.58     53.76    -27.83     24.00
   25.5448     55.02     53.69    -27.31     24.00
   25.5549     53.38     53.61    -28.88     24.00
   25.5651     54.09     53.54    -28.09     24.00
   25.5752     54.66     53.46    -27.45     24.00
   25.5854     53.43     53.39    -28.60     24.00
   25.5956     54.36     53.31    -27.60     24.00
   25.6057     53.91     53.24    -27.98     24.00
   25.6159     54.34     53.17    -27.47     24.00
   25.6261     54.18     53.10    -27.56     24.00
   25.6362     55.04     53.03    -26.63     24.00
   25.6464     53.50     52.95    -28.10     24.00
   25.6566     54.82     52.88    -26.71     24.00
   25.6667     54.11     52.81    -27.35     24.00
   25.6769     52.30     52.74    -29.09     24.00
   25.6871     54.13     52.67    -27.19     24.00
   25.6972     53.79     52.60    -27.46     24.00
   25.7074     53.69     52.53    -27.49     24.00
   25.7175     53.07     52.47    -28.04     24.00
   25.7277     53.42     52.40    -27.62     24.00
   25.7379     53.48     52.33    -27.50     24.00
   25.7480     53.28     52.26    -27.63     24.00
   25.7582     52.93     52.20    -27.91     24.00
   25.7684     53.19     52.13    -27.59     24.00
   25.7785     53.71     52.07    -27.00     24.00
   25.7887     53.40     52.00    -27.25     24.00
   25.7989     52.68     51.94    -27.90     24.00
   25.8090     53.05     51.87    -27.47     24.00
   25.8192     52.87     51.81    -27.58     24.00
   25.8294     51.80     51.74    -28.59     24.00
   25.8395     52.63     51.68    -27.70     24.00
   25.8497     53.06     51.62    -27.21     24.00
   25.8599     51.77     51.56    -28.43     24.00
   25.8700     52.35     51.50    -27.79     24.00
   25.8802     53.55     51.43    -26.53     24.00
   25.8903     51.96     51.37    -28.06     24.00
   25.9005     52.37     51.31    -27.59     24.00
   25.9107     52.74     51.25    -27.16     24.00
   25.9208     52.65     51.20    -27.19     24.00
   25.9310     52.45     51.14    -27.33     24.00
   25.9412     52.20     51.08    -27.52     24.00
   25.9513     52.08     51.02    -27.59     24.00
   25.9615     52.36     50.96    -27.25     24.00
   25.9717     52.32     50.91    -27.23     24.00
   25.9818     51.91     50.85    -27.59     24.00
   25.9920     51.68     50.80    -27.76     24.00
   26.0022     51.48     50.74    -27.91     24.00
   26.0123     51.42     50.69    -27.91     24.00
   26.0225     51.30     50.63    -27.98     24.00
   26.0326     51.76     50.58    -27.46     24.00
   26.0428     51.49     50.52    -27.68     24.00
   26.0530     51.85     50.47    -27.27     24.00
   26.0631     50.83     50.42    -28.24     24.00
   26.0733     50.52     50.37    -28.49     24.00
   26.0835     51.52     50.32    -27.44     24.00
   26.0936     51.21     50.27    -27.70     24.00
   26.1038     51.20     50.22    -27.66     24.00
   26.1140     50.29     50.17    -28.52     24.00
   26.1241     50.63     50.12    -28.13     24.00
   26.1343     51.29     50.07    -27.42     24.00
   26.1445     51.20     50.02    -27.46     24.00
   26.1546     50.84     49.97    -27.78     24.00
   26.1648     51.04     49.92    -27.53     24.00
   26.1750     50.59     49.88    -27.93     24.00
   26.1851     50.35     49.83    -28.13     24.00
   26.1953     50.42     49.78    -28.01     24.00
   26.2054     50.05     49.74    -28.34     24.00
   26.2156     50.68     49.69    -27.66     24.00
   26.2258     50.73     49.65    -27.57     24.00
   26.2359     51.27     49.61    -26.98     24.00
   26.2461     50.63     49.56    -27.58     24.00
   26.2563     50.71     49.52    -27.46     24.00
   26.2664     50.59     49.48    -27.53     24.00
   26.2766     49.99     49.44    -28.09     24.00
   26.2868     51.62     49.40    -26.42     24.00
   26.2969     49.45     49.35    -28.55     24.00
   26.3071     50.13     49.31    -27.83     24.00
   26.3173     49.94     49.27    -27.98     24.00
   26.3274     49.47     49.24    -28.41     24.00
   26.3376     50.26     49.20    -27.58     24.00
   26.3477     50.15     49.16    -27.66     24.00
   26.3579     49.09     49.12    -28.68     24.00
   26.3681     49.57     49.08    -28.16     24.00
   26.3782     49.41     49.05    -28.28     24.00
   26.3884     50.04     49.01    -27.62     24.00
   26.3986     50.52     48.98    -27.10     24.00
   26.4087     48.67     48.94    -28.92     24.00
   26.4189     48.85     48.91    -28.70     24.00
   26.4291     48.96     48.87    -28.56     24.00
   26.4392     49.04     48.84    -28.44     24.00
   26.4494     49.30     48.81    -28.15     24.00
   26.4596     49.23     48.77    -28.19     24.00
   26.4697     49.20     48.74    -28.19     24.00
   26.4799     47.73     48.71    -29.63     24.00
   26.4901     48.23     48.68    -29.09     24.00
   26.5002     48.88     48.65    -28.41     24.00
   26.5104     49.99     48.62    -27.27     24.00
   26.5205     48.49     48.59    -28.75     24.00
   26.5307     48.55     48.56    -28.66     24.00
   26.5409     48.72     48.53    -28.46     24.00
   26.5510     48.37     48.50    -28.78     24.00
   26.5612     49.08     48.48    -28.04     24.00
   26.5714     48.76     48.45    -28.34     24.00
   26.5815     48.86     48.42    -28.21     24.00
   26.5917     49.63     48.40    -27.41     24.00
   26.6019     48.89     48.37    -28.13     24.00
   26.6120     48.29     48.35    -28.70     24.00
   26.6222     47.66     48.32    -29.31     24.00
   26.6324     48.02     48.30    -28.93     24.00
   26.6425     49.23     48.28    -27.69     24.00
   26.6527     48.25     48.25    -28.65     24.00
   26.6628     48.68     48.23    -28.20     24.00
   26.6730     48.20     48.21    -28.66     24.00
   26.6832     48.54     48.19    -28.29     24.00
   26.6933     48.91     48.17    -27.90     24.00
   26.7035     47.76     48.15    -29.03     24.00
   26.7137     48.61     48.13    -28.16     24.00
   26.7238     47.47     48.11    -29.29     24.00
   26.7340     49.37     48.09    -27.37     24.00
   26.7442     48.68     48.07    -28.04     24.00
   26.7543     48.07     48.05    -28.63     24.00
   26.7645     47.59     48.04    -29.09     24.00
   26.7747     48.46     48.02    -28.21     24.00
   26.7848     47.16     48.00    -29.49     24.00
   26.7950     48.22     47.99    -28.41     24.00
   26.8052     47.93     47.97    -28.69     24.00
   26.8153     47.49     47.96    -29.12     24.00
   26.8255     47.64     47.95    -28.95     24.00
   26.8356     47.98     47.93    -28.60     24.00
   26.8458     48.74     47.92    -27.82     24.00
   26.8560     48.70     47.91    -27.85     24.00
   26.8661     47.04     47.89    -29.50     24.00
   26.8763     47.54     47.88    -28.99     24.00
   26.8865     48.67     47.87    -27.85     24.00
   26.8966     47.26     47.86    -29.25     24.00
   26.9068     48.76     47.85    -27.74     24.00
   26.9170     47.71     47.84    -28.78     24.00
   26.9271     47.19     47.83    -29.29     24.00
   26.9373     46.93     47.82    -29.54     24.00
   26.9475     47.04     47.82    -29.42     24.00
   26.9576     48.30     47.81    -28.15     24.00
   26.9678     47.95     47.80    -28.50     24.00
   26.9779     47.84     47.79    -28.60     24.00
   26.9881     47.14     47.79    -29.30     24.00
   26.9983     46.78     47.78    -29.65     24.00
   27.0084     48.07     47.78    -28.36     24.00
   27.0186     46.80     47.78    -29.62     24.00
   27.0288     47.77     47.77    -28.65     24.00
   27.0389     47.42     47.77    -28.99     24.00
   27.0491     47.12     47.77    -29.29     24.00
   27.0593     47.93     47.76    -28.48     24.00
   27.0694     47.82     47.76    -28.59     24.00
   27.0796     47.50     47.76    -28.91     24.00
   27.0898     47.77     47.76    -28.64     24.00
   27.0999     47.87     47.76    -28.54     24.00
   27.1101     46.99     47.76    -29.42     24.00
   27.1202     48.42     47.77    -27.99     24.00
   27.1304     47.62     47.77    -28.80     24.00
   27.1406     46.97     47.77    -29.45     24.00
   27.1507     46.99     47.78    -29.43     24.00
   27.1609     47.54     47.78    -28.89     24.00
   27.1711     47.37     47.79    -29.06     24.00
   27.1812     47.31     47.80    -29.13     24.00
   27.1914     46.76     47.80    -29.69     24.00
   27.2016     47.51     47.81    -28.95     24.00
   27.2117     47.45     47.82    -29.02     24.00
   27.2219     46.45     47.83    -30.03     24.00
   27.2321     47.38     47.84    -29.11     24.00
   27.2422     45.98     47.85    -30.52     24.00
   27.2524     47.46     47.87    -29.05     24.00
   27.2626     47.68     47.88    -28.85     24.00
   27.2727     47.79     47.90    -28.75     24.00
   27.2829     47.94     47.91    -28.62     24.00
   27.2930     46.73     47.93    -29.85     24.00
   27.3032     47.49     47.95    -29.11     24.00
   27.3134     47.20     47.97    -29.42     24.00
   27.3235     47.95     47.99    -28.69     24.00
   27.3337     47.89     48.02    -28.77     24.00
   27.3439     47.30     48.04    -29.39     24.00
   27.3540     47.82     48.07    -28.90     24.00
   27.3642     47.84     48.10    -28.90     24.00
   27.3744     48.15     48.13    -28.63     24.00
   27.3845     47.27     48.16    -29.54     24.00
   27.3947     47.75     48.20    -29.09     24.00
   27.4049     47.38     48.23    -29.50     24.00
   27.4150     47.87     48.27    -29.05     24.00
   27.4252     48.35     48.31    -28.61     24.00
   27.4353     48.33     48.35    -28.67     24.00
   27.4455     46.96     48.40    -30.08     24.00
   27.4557     47.54     48.45    -29.55     24.00
   27.4658     48.05     48.50    -29.09     24.00
   27.4760     47.97     48.55    -29.23     24.00
   27.4862     48.21     48.61    -29.04     24.00
   27.4963     48.25     48.66    -29.06     24.00
   27.5065     48.21     48.73    -29.16     24.00
   27.5167     48.05     48.79    -29.39     24.00
   27.5268     49.14     48.86    -28.37     24.00
   27.5370     48.96     48.93    -28.62     24.00
   27.5472     49.09     49.01    -28.57     24.00
   27.5573     49.04     49.09    -28.69     24.00
   27.5675     48.63     49.17    -29.19     24.00
   27.5777     48.70     49.26    -29.21     24.00
   27.5878     47.88     49.35    -30.12     24.00
   27.5980     48.56     49.45    -29.53     24.00
   27.6081     48.63     49.55    -29.56     24.00
   27.6183     49.41     49.65    -28.89     24.00
   27.6285     48.73     49.76    -29.68     24.00
   27.6386     49.37     49.88    -29.15     24.00
   27.6488     50.32     50.00    -28.32     24.00
   27.6590     49.55     50.12    -29.22     24.00
   27.6691     50.99     50.25    -27.91     24.00
   27.6793     50.34     50.39    -28.70     24.00
   27.6895     50.73     50.53    -28.45     24.00
   27.6996     50.48     50.68    -28.85     24.00
   27.7098     51.07     50.83    -28.41     24.00
   27.7200     51.57     51.00    -28.07     24.00
   27.7301     51.67     51.16    -28.14     24.00
   27.7403     51.47     51.33    -28.51     24.00
   27.7504     51.52     51.51    -28.64     24.00
   27.7606     52.16     51.70    -28.18     24.00
   27.7708     51.37     51.89    -29.17     24.00
   27.7809     51.74     52.09    -28.99     24.00
   27.7911     52.34     52.29    -28.60     24.00
   27.8013     51.82     52.51    -29.33     24.00
   27.8114     53.23     52.72    -28.14     24.00
   27.8216     52.26     52.95    -29.34     24.00
   27.8318     53.38     53.19    -28.45     24.00
   27.8419     52.70     53.43    -29.37     24.00
   27.8521     53.26     53.68    -29.06     24.00
   27.8623     53.98     53.93    -28.60     24.00
   27.8724     53.76     54.19    -29.08     24.00
   27.8826     54.10     54.46    -29.01     24.00
   27.8928     53.80     54.74    -29.59     24.00
   27.9029     54.24     55.02    -29.43     24.00
   27.9131     55.37     55.32    -28.59     24.00
   27.9232     55.63     55.61    -28.63     24.00
   27.9334     55.51     55.92    -29.05     24.00
   27.9436     55.85     56.23    -29.03     24.00
   27.9537     55.80     56.55    -29.39     24.00
   27.9639     56.43     56.87    -29.09     24.00
   27.9741     56.90     57.20    -28.95     24.00
   27.9842     57.22     57.54    -28.97     24.00
   27.9944     57.13     57.88    -29.40     24.00
   28.0046     58.94     58.24    -27.94     24.00
   28.0147     57.60     58.59    -29.63     24.00
   28.0249     58.53     58.95    -29.06     24.00
   28.0351     58.81     59.31    -29.15     24.00
   28.0452     59.19     59.68    -29.14     24.00
   28.0554     60.05     60.06    -28.65     24.00
   28.0655     59.90     60.43    -29.18     24.00
   28.0757     60.65     60.81    -28.81     24.00
   28.0859     60.99     61.20    -28.86     24.00
   28.0960     60.71     61.58    -29.52     24.00
   28.1062     62.01     61.98    -28.61     24.00
   28.1164     61.98     62.37    -29.03     24.00
   28.1265     62.40     62.76    -29.01     24.00
   28.1367     63.10     63.16    -28.70     24.00
   28.1469     64.37     63.55    -27.83     24.00
   28.1570     62.95     63.94    -29.64     24.00
   28.1672     64.66     64.34    -28.33     24.00
   28.1774     63.63     64.73    -29.75     24.00
   28.1875     65.24     65.12    -28.53     24.00
   28.1977     66.01     65.51    -28.15     24.00
   28.2079     66.66     65.90    -27.89     24.00
   28.2180     66.76     66.28    -28.17     24.00
   28.2282     67.92     66.66    -27.39     24.00
   28.2383     68.10     67.04    -27.58     24.00
   28.2485     68.70     67.41    -27.36     24.00
   28.2587     69.28     67.77    -27.14     24.00
   28.2688     69.63     68.13    -27.15     24.00
   28.2790     69.87     68.48    -27.26     24.00
   28.2892     70.91     68.83    -26.56     24.00
   28.2993     70.84     69.16    -26.97     24.00
   28.3095     69.34     69.49    -28.79     24.00
   28.3197     71.60     69.81    -26.85     24.00
   28.3298     70.88     70.11    -27.88     24.00
   28.3400     71.01     70.41    -28.04     24.00
   28.3502     71.35     70.69    -27.99     24.00
   28.3603     71.27     70.96    -28.34     24.00
   28.3705     70.66     71.22    -29.21     24.00
   28.3806     71.64     71.47    -28.47     24.00
   28.3908     71.81     71.70    -28.54     24.00
   28.4010     72.14     71.92    -28.43     24.00
   28.4111     71.46     72.12    -29.31     24.00
   28.4213     73.47     72.31    -27.49     24.00
   28.4315     74.16     72.49    -26.97     24.00
   28.4416     72.30     72.64    -28.99     24.00
   28.4518     73.53     72.78    -27.90     24.00
   28.4620     72.57     72.91    -28.98     24.00
   28.4721     72.95     73.01    -28.71     24.00
   28.4823     73.95     73.10    -27.80     24.00
   28.4925     73.07     73.17    -28.75     24.00
   28.5026     71.91     73.23    -29.96     24.00
   28.5128     73.41     73.26    -28.50     24.00
   28.5230     72.95     73.28    -28.97     24.00
   28.5331     73.93     73.28    -27.99     24.00
   28.5433     74.17     73.26    -27.73     24.00
   28.5534     71.93     73.22    -29.94     24.00
   28.5636     72.71     73.16    -29.10     24.00
   28.5738     73.41     73.09    -28.33     24.00
   28.5839     72.02     73.00    -29.62     24.00
   28.5941     73.29     72.89    -28.24     24.00
   28.6043     72.37     72.76    -29.04     24.00
   28.6144     72.09     72.62    -29.17     24.00
   28.6246     73.66     72.46    -27.44     24.00
   28.6348     71.78     72.28    -29.14     24.00
   28.6449     70.71     72.09    -30.02     24.00
   28.6551     72.28     71.88    -28.24     24.00
   28.6653     72.30     71.65    -28.00     24.00
   28.6754     70.40     71.41    -29.66     24.00
   28.6856     70.76     71.16    -29.05     24.00
   28.6957     70.92     70.90    -28.62     24.00
   28.7059     67.61     70.62    -31.65     24.00
   28.7161     68.50     70.32    -30.47     24.00
   28.7262     69.43     70.02    -29.24     24.00
   28.7364     68.49     69.71    -29.86     24.00
   28.7466     68.80     69.38    -29.22     24.00
   28.7567     67.95     69.04    -29.74     24.00
   28.7669     68.12     68.70    -29.22     24.00
   28.7771     68.41     68.34    -28.58     24.00
   28.7872     67.84     67.98    -28.79     24.00
   28.7974     67.18     67.61    -29.08     24.00
   28.8076     67.37     67.23    -28.51     24.00
   28.8177     66.19     66.85    -29.31     24.00
   28.8279     65.25     66.46    -29.86     24.00
   28.8381     66.25     66.07    -28.46     24.00
   28.8482     66.20     65.67    -28.12     24.00
   28.8584     64.35     65.27    -29.57     24.00
   28.8685     64.34     64.87    -29.17     24.00
   28.8787     63.75     64.46    -29.35     24.00
   28.8889     63.54     64.04    -29.15     24.00
   28.8990     64.18     63.64    -28.10     24.00
   28.9092     62.93     63.22    -28.94     24.00
   28.9194     62.85     62.81    -28.60     24.00
   28.9295     62.51     62.39    -28.53     24.00
   28.9397     62.21     61.98    -28.42     24.00
   28.9499     61.44     61.57    -28.77     24.00
   28.9600     61.24     61.16    -28.56     24.00
   28.9702     61.79     60.75    -27.60     24.00
   28.9804     59.05     60.34    -29.93     24.00
   28.9905     60.54     59.94    -28.04     24.00
   29.0007     60.71     59.53    -27.47     24.00
   29.0108     58.74     59.14    -29.04     24.00
   29.0210     57.68     58.74    -29.71     24.00
   29.0312     58.68     58.35    -28.32     24.00
   29.0413     57.31     57.97    -29.30     24.00
   29.0515     57.04     57.58    -29.19     24.00
   29.0617     58.36     57.21    -27.49     24.00
   29.0718     57.59     56.84    -27.89     24.00
   29.0820     56.73     56.47    -28.38     24.00
   29.0922     55.86     56.11    -28.89     24.00
   29.1023     56.62     55.75    -27.78     24.00
   29.1125     55.71     55.40    -28.34     24.00
   29.1227     54.12     55.06    -29.59     24.00
   29.1328     54.54     54.73    -28.83     24.00
   29.1430     54.22     54.39    -28.82     24.00
   29.1531     54.94     54.07    -27.78     24.00
   29.1633     54.02     53.75    -28.38     24.00
   29.1735     53.68     53.44    -28.41     24.00
   29.1836     52.76     53.14    -29.03     24.00
   29.1938     52.99     52.84    -28.50     24.00
   29.2040     52.70     52.55    -28.50     24.00
   29.2141     52.40     52.27    -28.51     24.00
   29.2243     53.12     51.99    -27.52     24.00
   29.2345     52.30     51.72    -28.06     24.00
   29.2446     51.84     51.45    -28.26     24.00
   29.2548     52.24     51.20    -27.60     24.00
   29.2650     53.11     50.94    -26.48     24.00
   29.2751     50.76     50.70    -28.59     24.00
   29.2853     50.05     50.46    -29.06     24.00
   29.2955     51.93     50.23    -26.94     24.00
   29.3056     50.40     50.00    -28.25     24.00
   29.3158     49.29     49.78    -29.14     24.00
   29.3259     49.85     49.57    -28.36     24.00
   29.3361     50.38     49.36    -27.62     24.00
   29.3463     49.80     49.16    -28.00     24.00
   29.3564     50.48     48.96    -27.13     24.00
   29.3666     49.76     48.77    -27.65     24.00
   29.3768     49.59     48.58    -27.63     24.00
   29.3869     49.12     48.40    -27.92     24.00
   29.3971     48.84     48.22    -28.03     24.00
   29.4073     48.31     48.05    -28.38     24.00
   29.4174     48.21     47.88    -28.32     24.00
   29.4276     48.26     47.72    -28.11     24.00
   29.4378     48.40     47.56    -27.81     24.00
   29.4479     47.61     47.41    -28.44     24.00
   29.4581     48.46     47.26    -27.44     24.00
   29.4682     47.06     47.11    -28.70     24.00
   29.4784     47.90     46.97    -27.72     24.00
   29.4886     47.13     46.83    -28.35     24.00
   29.4987     46.13     46.70    -29.21     24.00
   29.5089     46.15     46.56    -29.06     24.00
   29.5191     46.57     46.44    -28.51     24.00
   29.5292     46.87     46.31    -28.09     24.00
   29.5394     46.38     46.19    -28.45     24.00
   29.5496     46.82     46.07    -27.89     24.00
   29.5597     45.23     45.95    -29.37     24.00
   29.5699     46.24     45.84    -28.24     24.00
   29.5801     46.95     45.72    -27.42     24.00
   29.5902     45.54     45.61    -28.72     24.00
   29.6004     45.30     45.51    -28.85     24.00
   29.6106     46.56     45.40    -27.49     24.00
   29.6207     46.10     45.30    -27.84     24.00
   29.6309     43.57     45.20    -30.27     24.00
   29.6410     45.16     45.10    -28.58     24.00
   29.6512     44.54     45.00    -29.10     24.00
   29.6614     45.20     44.90    -28.35     24.00
   29.6715     44.87     44.80    -28.58     24.00
   29.6817     44.23     44.71    -29.13     24.00
   29.6919     44.19     44.62    -29.07     24.00
   29.7020     44.86     44.53    -28.31     24.00
   29.7122     43.38     44.43    -29.70     24.00
   29.7224     44.38     44.34    -28.61     24.00
   29.7325     43.66     44.26    -29.24     24.00
   29.7427     44.35     44.17    -28.46     24.00
   29.7529     43.70     44.08    -29.03     24.00
   29.7630     43.30     43.99    -29.34     24.00
   29.7732     43.01     43.91    -29.54     24.00
   29.7833     43.49     43.82    -28.98     24.00
   29.7935     43.90     43.74    -28.49     24.00
   29.8037     42.98     43.66    -29.32     24.00
   29.8138     43.00     43.57    -29.22     24.00
   29.8240     43.53     43.49    -28.61     24.00
   29.8342     43.27     43.41    -28.78     24.00
   29.8443     43.48     43.32    -28.49     24.00
   29.8545     43.38     43.24    -28.51     24.00
   29.8647     42.79     43.16    -29.02     24.00
   29.8748     43.08     43.08    -28.65     24.00
   29.8850     43.30     43.00    -28.34     24.00
   29.8952     43.45     42.92    -28.11     24.00
   29.9053     42.76     42.84    -28.72     24.00
   29.9155     42.46     42.76    -28.94     24.00
   29.9257     42.52     42.68    -28.80     24.00
   29.9358     42.48     42.60    -28.76     24.00
   29.9460     43.21     42.52    -27.95     24.00
   29.9561     43.11     42.44    -27.97     24.00
   29.9663     42.66     42.36    -28.34     24.00
   29.9765     42.51     42.28    -28.41     24.00
   29.9866     42.20     42.20    -28.64     24.00
   29.9968     42.99     42.12    -27.77     24.00
   30.0070     43.20     42.04    -27.48     24.00
   30.0171     42.54     41.96    -28.06     24.00
   30.0273     43.04     41.88    -27.48     24.00
   30.0375     42.38     41.80    -28.06     24.00
   30.0476     41.55     41.72    -28.82     24.00
   30.0578     42.46     41.64    -27.83     24.00
   30.0680     42.10     41.56    -28.11     24.00
   30.0781     42.42     41.48    -27.71     24.00
   30.0883     42.77     41.40    -27.28     24.00
   30.0984     41.92     41.32    -28.05     24.00
   30.1086     42.37     41.24    -27.52     24.00
   30.1188     41.65     41.16    -28.16     24.00
   30.1289     41.83     41.08    -27.90     24.00
   30.1391     41.46     41.00    -28.19     24.00
   30.1493     41.76     40.92    -27.81     24.00
   30.1594     41.87     40.84    -27.62     24.00
   30.1696     40.71     40.76    -28.70     24.00
   30.1798     40.82     40.68    -28.51     24.00
   30.1899     40.77     40.60    -28.48     24.00
   30.2001     40.99     40.52    -28.18     24.00
   30.2103     40.30     40.44    -28.79     24.00
   30.2204     41.34     40.36    -27.67     24.00
   30.2306     41.04     40.28    -27.89     24.00
   30.2408     40.33     40.20    -28.52     24.00
   30.2509     40.54     40.13    -28.23     24.00
   30.2611     40.45     40.05    -28.24     24.00
   30.2712     40.35     39.97    -28.26     24.00
   30.2814     40.37     39.89    -28.16     24.00
   30.2916     40.42     39.81    -28.03     24.00
   30.3017     40.04     39.73    -28.33     24.00
   30.3119     40.39     39.65    -27.90     24.00
   30.3221     40.31     39.57    -27.90     24.00
   30.3322     39.13     39.49    -29.00     24.00
   30.3424     39.31     39.41    -28.74     24.00
   30.3526     39.03     39.33    -28.95     24.00
   30.3627     38.95     39.25    -28.95     24.00
   30.3729     39.51     39.17    -28.31     24.00
   30.3831     38.62     39.09    -29.12     24.00
   30.3932     39.40     39.01    -28.26     24.00
   30.4034     38.61     38.93    -28.97     24.00
   30.4135     37.69     38.86    -29.81     24.00
   30.4237     38.87     38.78    -28.55     24.00
   30.4339     38.07     38.70    -29.27     24.00
   30.4440     37.60     38.62    -29.67     24.00
   30.4542     38.31     38.54    -28.88     24.00
   30.4644     38.14     38.46    -28.97     24.00
   30.4745     38.12     38.39    -28.91     24.00
   30.4847     37.95     38.31    -29.00     24.00
   30.4949     37.54     38.23    -29.34     24.00
   30.5050     37.41     38.15    -29.39     24.00
   30.5152     37.66     38.07    -29.06     24.00
   30.5254     38.09     38.00    -28.55     24.00
   30.5355     37.60     37.92    -28.97     24.00
   30.5457     37.54     37.84    -28.95     24.00
   30.5559     37.90     37.77    -28.51     24.00
   30.5660     37.60     37.69    -28.74     24.00
   30.5762     37.16     37.61    -29.10     24.00
   30.5863     37.37     37.54    -28.81     24.00
   30.5965     36.41     37.46    -29.70     24.00
   30.6067     36.48     37.39    -29.55     24.00
   30.6168     36.85     37.31    -29.11     24.00
   30.6270     36.86     37.24    -29.02     24.00
   30.6372     36.09     37.16    -29.72     24.00
   30.6473     36.18     37.09    -29.55     24.00
   30.6575     36.76     37.01    -28.90     24.00
   30.6677     35.27     36.94    -30.31     24.00
   30.6778     35.73     36.87    -29.78     24.00
   30.6880     36.08     36.79    -29.36     24.00
   30.6982     35.02     36.72    -30.34     24.00
   30.7083     36.15     36.65    -29.14     24.00
   30.7185     36.34     36.57    -28.88     24.00
   30.7286     35.15     36.50    -30.00     24.00
   30.7388     36.26     36.43    -28.82     24.00
   30.7490     36.20     36.36    -28.80     24.00
   30.7591     34.84     36.29    -30.09     24.00
   30.7693     35.96     36.22    -28.90     24.00
   30.7795     34.93     36.14    -29.86     24.00
   30.7896     35.88     36.08    -28.84     24.00
   30.7998     36.20     36.01    -28.45     24.00
   30.8100     34.97     35.94    -29.61     24.00
   30.8201     35.57     35.87    -28.94     24.00
   30.8303     36.29     35.80    -28.15     24.00
   30.8405     35.49     35.73    -28.89     24.00
   30.8506     35.16     35.66    -29.15     24.00
   30.8608     35.91     35.59    -28.33     24.00
   30.8710     35.18     35.53    -28.99     24.00
   30.8811     35.11     35.46    -29.00     24.00
   30.8913     35.63     35.40    -28.41     24.00
   30.9014     34.79     35.33    -29.19     24.00
   30.9116     34.73     35.26    -29.18     24.00
   30.9218     34.48     35.20    -29.37     24.00
   30.9319     34.31     35.14    -29.47     24.00
   30.9421     34.79     35.07    -28.93     24.00
   30.9523     35.46     35.01    -28.19     24.00
   30.9624     33.74     34.95    -29.85     24.00
   30.9726     34.67     34.88    -28.86     24.00
   30.9828     34.12     34.82    -29.35     24.00
   30.9929     34.43     34.76    -28.98     24.00
   31.0031     33.70     34.70    -29.65     24.00
   31.0133     34.09     34.64    -29.20     24.00
   31.0234     34.51     34.58    -28.72     24.00
   31.0336     34.32     34.52    -28.85     24.00
   31.0437     34.73     34.46    -28.38     24.00
   31.0539     33.87     34.40    -29.18     24.00
   31.0641     33.99     34.35    -29.00     24.00
   31.0742     34.41     34.29    -28.53     24.00
   31.0844     34.62     34.23    -28.26     24.00
   31.0946     33.66     34.18    -29.16     24.00
   31.1047     33.68     34.12    -29.09     24.00
   31.1149     33.68     34.07    -29.04     24.00
   31.1251     33.76     34.02    -28.90     24.00
   31.1352     34.34     33.96    -28.27     24.00
   31.1454     33.54     33.91    -29.02     24.00
   31.1556     33.40     33.86    -29.10     24.00
   31.1657     33.96     33.81    -28.49     24.00
   31.1759     34.65     33.76    -27.75     24.00
   31.1860     33.77     33.71    -28.58     24.00
   31.1962     33.62     33.66    -28.68     24.00
   31.2064     32.30     33.61    -29.95     24.00
   31.2165     32.99     33.56    -29.22     24.00
   31.2267     33.59     33.51    -28.57     24.00
   31.2369     33.32     33.47    -28.79     24.00
   31.2470     33.28     33.42    -28.79     24.00
   31.2572     33.96     33.37    -28.06     24.00
   31.2674     32.67     33.33    -29.31     24.00
   31.2775     32.97     33.29    -28.96     24.00
   31.2877     32.77     33.24    -29.12     24.00
   31.2979     32.98     33.20    -28.87     24.00
   31.3080     33.48     33.16    -28.33     24.00
   31.3182     33.32     33.12    -28.44     24.00
   31.3284     33.13     33.08    -28.59     24.00
   31.3385     32.62     33.04    -29.07     24.00
   31.3487     33.84     33.00    -27.81     24.00
   31.3588     32.26     32.96    -29.35     24.00
   31.3690     33.00     32.93    -28.57     24.00
   31.3792     33.51     32.89    -28.03     24.00
   31.3893     32.68     32.85    -28.82     24.00
   31.3995     32.56     32.82    -28.91     24.00
   31.4097     33.24     32.79    -28.19     24.00
   31.4198     32.96     32.75    -28.44     24.00
   31.4300     32.59     32.72    -28.78     24.00
   31.4402     32.95     32.69    -28.38     24.00
   31.4503     32.93     32.66    -28.37     24.00
   31.4605     32.49     32.63    -28.78     24.00
   31.4707     32.74     32.60    -28.51     24.00
   31.4808     32.58     32.57    -28.64     24.00
   31.4910     32.81     32.54    -28.38     24.00
   31.5011     32.40     32.52    -28.76     24.00
   31.5113     32.17     32.49    -28.97     24.00
   31.5215     33.41     32.47    -27.70     24.00
   31.5316     32.90     32.44    -28.19     24.00
   31.5418     32.86     32.42    -28.20     24.00
   31.5520     32.43     32.40    -28.61     24.00
   31.5621     33.95     32.37    -27.07     24.00
   31.5723     32.45     32.35    -28.55     24.00
   31.5825     33.16     32.33    -27.82     24.00
   31.5926     32.18     32.31    -28.78     24.00
   31.6028     32.95     32.30    -27.99     24.00
   31.6130     32.46     32.28    -28.47     24.00
   31.6231     32.30     32.26    -28.61     24.00
   31.6333     31.90     32.25    -28.99     24.00
   31.6435     32.38     32.23    -28.50     24.00
   31.6536     32.60     32.22    -28.26     24.00
   31.6638     32.01     32.20    -28.84     24.00
   31.6739     32.66     32.19    -28.18     24.00
   31.6841     32.75     32.18    -28.08     24.00
   31.6943     32.09     32.17    -28.73     24.00
   31.7044     32.51     32.16    -28.30     24.00
   31.7146     33.43     32.15    -27.37     24.00
   31.7248     32.95     32.14    -27.84     24.00
   31.7349     32.18     32.14    -28.60     24.00
   31.7451     32.59     32.13    -28.18     24.00
   31.7553     31.96     32.12    -28.81     24.00
   31.7654     32.25     32.12    -28.51     24.00
   31.7756     32.99     32.11    -27.77     24.00
   31.7858     32.26     32.11    -28.50     24.00
   31.7959     32.08     32.11    -28.67     24.00
   31.8061     33.21     32.11    -27.54     24.00
   31.8162     32.39     32.11    -28.36     24.00
   31.8264     32.89     32.11    -27.86     24.00
   31.8366     33.99     32.11    -26.76     24.00
   31.8467     33.21     32.11    -27.54     24.00
   31.8569     31.38     32.11    -29.38     24.00
   31.8671     33.23     32.11    -27.53     24.00
   31.8772     32.18     32.12    -28.58     24.00
   31.8874     32.55     32.12    -28.22     24.00
   31.8976     32.49     32.13    -28.28     24.00
   31.9077     32.73     32.13    -28.05     24.00
   31.9179     32.29     32.14    -28.49     24.00
   31.9281     32.80     32.14    -27.99     24.00
   31.9382     33.05     32.15    -27.75     24.00
   31.9484     31.96     32.16    -28.85     24.00
   31.9586     32.19     32.17    -28.63     24.00
   31.9687     31.83     32.18    -29.00     24.00
   31.9789     32.32     32.19    -28.52     24.00
   31.9890     33.33     32.20    -27.52     24.00
   31.9992     32.31     32.21    -28.55     24.00
   32.0094     32.38     32.23    -28.49     24.00
   32.0195     32.29     32.24    -28.60     24.00
   32.0297     31.90     32.25    -29.00     24.00
   32.0399     32.52     32.27    -28.39     24.00
   32.0500     33.28     32.28    -27.65     24.00
   32.0602     31.95     32.30    -28.99     24.00
   32.0704     32.98     32.31    -27.98     24.00
   32.0805     32.86     32.33    -28.12     24.00
   32.0907     32.27     32.35    -28.72     24.00
   32.1009     32.80     32.36    -28.21     24.00
   32.1110     32.95     32.38    -28.08     24.00
   32.1212     31.60     32.40    -29.45     24.00
   32.1313     33.12     32.42    -27.95     24.00
   32.1415     33.48     32.44    -27.60     24.00
   32.1517     32.95     32.46    -28.15     24.00
   32.1618     32.96     32.48    -28.16     24.00
   32.1720     33.35     32.50    -27.80     24.00
   32.1822     33.23     32.52    -27.94     24.00
   32.1923     32.38     32.54    -28.81     24.00
   32.2025     33.55     32.56    -27.66     24.00
   32.2127     32.49     32.58    -28.74     24.00
   32.2228     33.20     32.61    -28.05     24.00
   32.2330     32.65     32.63    -28.62     24.00
   32.2432     33.26     32.65    -28.04     24.00
   32.2533     33.81     32.67    -27.51     24.00
   32.2635     33.29     32.70    -28.05     24.00
   32.2737     32.67     32.72    -28.70     24.00
   32.2838     33.05     32.74    -28.34     24.00
   32.2940     32.55     32.77    -28.86     24.00
   32.3041     32.69     32.79    -28.75     24.00
   32.3143     33.05     32.81    -28.41     24.00
   32.3245     33.21     32.84    -28.27     24.00
   32.3346     32.74     32.86    -28.77     24.00
   32.3448     32.66     32.89    -28.87     24.00
   32.3550     32.90     32.91    -28.66     24.00
   32.3651     32.72     32.93    -28.86     24.00
   32.3753     33.07     32.96    -28.53     24.00
   32.3855     33.23     32.98    -28.40     24.00
   32.3956     32.63     33.01    -29.02     24.00
   32.4058     32.57     33.03    -29.11     24.00
   32.4160     33.56     33.05    -28.14     24.00
   32.4261     33.18     33.08    -28.54     24.00
   32.4363     33.93     33.10    -27.82     24.00
   32.4464     32.97     33.12    -28.80     24.00
   32.4566     32.99     33.15    -28.80     24.00
   32.4668     33.10     33.17    -28.71     24.00
   32.4769     33.23     33.19    -28.61     24.00
   32.4871     33.69     33.21    -28.17     24.00
   32.4973     33.16     33.24    -28.72     24.00
   32.5074     34.48     33.26    -27.42     24.00
   32.5176     33.18     33.28    -28.74     24.00
   32.5278     32.55     33.30    -29.39     24.00
   32.5379     32.92     33.32    -29.05     24.00
   32.5481     32.86     33.34    -29.13     24.00
   32.5583     32.91     33.36    -29.10     24.00
   32.5684     33.24     33.38    -28.78     24.00
   32.5786     32.59     33.40    -29.45     24.00
   32.5888     33.42     33.42    -28.64     24.00
   32.5989     33.14     33.43    -28.94     24.00
   32.6091     33.21     33.45    -28.89     24.00
   32.6192     33.16     33.47    -28.95     24.00
   32.6294     32.96     33.48    -29.17     24.00
   32.6396     33.14     33.50    -29.00     24.00
   32.6497     33.45     33.51    -28.71     24.00
   32.6599     32.16     33.53    -30.01     24.00
   32.6701     32.54     33.54    -29.65     24.00
   32.6802     33.65     33.55    -28.55     24.00
   32.6904     32.69     33.57    -29.52     24.00
   32.7006     32.41     33.58    -29.81     24.00
   32.7107     32.40     33.59    -29.83     24.00
   32.7209     33.49     33.60    -28.75     24.00
   32.7311     32.37     33.61    -29.88     24.00
   32.7412     33.27     33.62    -28.99     24.00
   32.7514     32.65     33.62    -29.62     24.00
   32.7615     32.96     33.63    -29.32     24.00
   32.7717     32.54     33.64    -29.74     24.00
   32.7819     33.35     33.64    -28.94     24.00
   32.7920     32.63     33.64    -29.66     24.00
   32.8022     32.89     33.65    -29.40     24.00
   32.8124     32.74     33.65    -29.56     24.00
   32.8225     32.87     33.65    -29.43     24.00
   32.8327     32.61     33.65    -29.69     24.00
   32.8429     32.46     33.65    -29.84     24.00
   32.8530     32.30     33.65    -30.00     24.00
   32.8632     34.38     33.65    -27.91     24.00
   32.8734     32.32     33.64    -29.97     24.00
   32.8835     33.01     33.64    -29.28     24.00
   32.8937     33.27     33.63    -29.01     24.00
   32.9039     32.74     33.63    -29.53     24.00
   32.9140     32.68     33.62    -29.59     24.00
   32.9242     32.53     33.61    -29.73     24.00
   32.9343     32.98     33.60    -29.27     24.00
   32.9445     31.74     33.59    -30.50     24.00
   32.9547     32.73     33.58    -29.50     24.00
   32.9648     32.79     33.57    -29.42     24.00
   32.9750     32.31     33.55    -29.89     24.00
   32.9852     32.89     33.54    -29.30     24.00
   32.9953     32.63     33.52    -29.54     24.00
   33.0055     32.52     33.51    -29.63     24.00
   33.0157     33.51     33.49    -28.62     24.00
   33.0258     33.78     33.47    -28.34     24.00
   33.0360     32.99     33.45    -29.11     24.00
   33.0462     32.70     33.43    -29.37     24.00
   33.0563     33.71     33.41    -28.34     24.00
   33.0665     32.94     33.38    -29.09     24.00
   33.0766     32.84     33.36    -29.17     24.00
   33.0868     32.63     33.33    -29.35     24.00
   33.0970     33.18     33.31    -28.77     24.00
   33.1071     32.45     33.28    -29.48     24.00
   33.1173     33.13     33.25    -28.77     24.00
   33.1275     32.84     33.22    -29.03     24.00
   33.1376     32.69     33.19    -29.15     24.00
   33.1478     33.85     33.16    -27.96     24.00
   33.1580     34.32     33.13    -27.45     24.00
   33.1681     32.56     33.09    -29.18     24.00
   33.1783     33.05     33.06    -28.66     24.00
   33.1885     32.29     33.03    -29.38     24.00
   33.1986     33.57     32.99    -28.07     24.00
   33.2088     33.70     32.95    -27.90     24.00
   33.2189     33.94     32.91    -27.62     24.00
   33.2291     32.33     32.87    -29.19     24.00
   33.2393     33.51     32.83    -27.97     24.00
   33.2494     33.01     32.79    -28.43     24.00
   33.2596     33.54     32.75    -27.86     24.00
   33.2698     33.21     32.71    -28.15     24.00
   33.2799     32.40     32.67    -28.91     24.00
   33.2901     32.89     32.62    -28.38     24.00
   33.3003     33.36     32.58    -27.86     24.00
   33.3104     33.01     32.53    -28.17     24.00
   33.3206     33.37     32.49    -27.76     24.00
   33.3308     33.32     32.44    -27.76     24.00
   33.3409     33.26     32.39    -27.78     24.00
   33.3511     32.81     32.34    -28.18     24.00
   33.3613     33.20     32.29    -27.74     24.00
   33.3714     33.01     32.24    -27.88     24.00
   33.3816     33.80     32.19    -27.04     24.00
   33.3917     33.26     32.14    -27.53     24.00
   33.4019     33.74     32.09    -27.00     24.00
   33.4121     33.46     32.04    -27.22     24.00
   33.4222     33.05     31.98    -27.58     24.00
   33.4324     32.99     31.93    -27.59     24.00
   33.4426     32.90     31.88    -27.62     24.00
   33.4527     32.70     31.82    -27.77     24.00
   33.4629     33.16     31.77    -27.25     24.00
   33.4731     32.95     31.71    -27.41     24.00
   33.4832     32.23     31.65    -28.07     24.00
   33.4934     32.10     31.60    -28.14     24.00
   33.5036     32.69     31.54    -27.50     24.00
   33.5137     32.41     31.48    -27.72     24.00
   33.5239     32.22     31.43    -27.85     24.00
   33.5340     32.33     31.37    -27.68     24.00
   33.5442     31.91     31.31    -28.05     24.00
   33.5544     31.97     31.25    -27.93     24.00
   33.5645     32.49     31.19    -27.35     24.00
   33.5747     32.71     31.13    -27.07     24.00
   33.5849     31.72     31.07    -28.00     24.00
   33.5950     32.09     31.01    -27.57     24.00
   33.6052     31.69     30.95    -27.91     24.00
   33.6154     31.65     30.89    -27.89     24.00
   33.6255     31.38     30.83    -28.10     24.00
   33.6357     30.85     30.77    -28.57     24.00
   33.6459     31.89     30.71    -27.47     24.00
   33.6560     31.48     30.65    -27.82     24.00
   33.6662     31.59     30.59    -27.64     24.00
   33.6764     31.32     30.53    -27.85     24.00
   33.6865     31.38     30.47    -27.73     24.00
   33.6967     30.20     30.40    -28.85     24.00
   33.7068     31.20     30.34    -27.79     24.00
   33.7170     30.87     30.28    -28.06     24.00
   33.7272     30.45     30.22    -28.42     24.00
   33.7373     30.84     30.16    -27.97     24.00
   33.7475     30.48     30.10    -28.26     24.00
   33.7577     30.22     30.04    -28.46     24.00
   33.7678     30.21     29.98    -28.41     24.00
   33.7780     30.13     29.91    -28.43     24.00
   33.7882     30.30     29.85    -28.20     24.00
   33.7983     29.10     29.79    -29.34     24.00
   33.8085     29.58     29.73    -28.80     24.00
   33.8187     29.15     29.67    -29.17     24.00
   33.8288     29.57     29.61    -28.69     24.00
   33.8390     29.28     29.55    -28.92     24.00
   33.8491     29.77     29.49    -28.37     24.00
   33.8593     29.15     29.43    -28.93     24.00
   33.8695     28.56     29.37    -29.46     24.00
   33.8796     29.39     29.31    -28.57     24.00
   33.8898     28.73     29.25    -29.17     24.00
   33.9000     28.90     29.19    -28.94     24.00
   33.9101     29.05     29.14    -28.73     24.00
   33.9203     29.44     29.08    -28.28     24.00
   33.9305     29.09     29.02    -28.57     24.00
   33.9406     28.27     28.96    -29.34     24.00
   33.9508     28.90     28.90    -28.65     24.00
   33.9610     28.71     28.85    -28.78     24.00
   33.9711     28.84     28.79    -28.60     24.00
   33.9813     28.95     28.73    -28.43     24.00
   33.9915     28.33     28.68    -28.99     24.00
   34.0016     28.23     28.62    -29.04     24.00
   34.0118     28.27     28.57    -28.94     24.00
   34.0219     28.01     28.51    -29.15     24.00
   34.0321     27.17     28.46    -29.93     24.00
   34.0423     28.33     28.40    -28.72     24.00
   34.0524     27.95     28.35    -29.04     24.00
   34.0626     27.80     28.29    -29.14     24.00
   34.0728     28.11     28.24    -28.78     24.00
   34.0829     27.74     28.19    -29.10     24.00
   34.0931     27.87     28.14    -28.91     24.00
   34.1033     27.32     28.09    -29.41     24.00
   34.1134     27.86     28.04    -28.82     24.00
   34.1236     28.09     27.98    -28.54     24.00
   34.1338     28.05     27.93    -28.53     24.00
   34.1439     27.01     27.88    -29.52     24.00
   34.1541     27.42     27.84    -29.06     24.00
   34.1642     26.82     27.79    -29.61     24.00
   34.1744     27.82     27.74    -28.56     24.00
   34.1846     28.01     27.69    -28.33     24.00
   34.1947     27.48     27.64    -28.81     24.00
   34.2049     27.60     27.60    -28.64     24.00
   34.2151     27.70     27.55    -28.50     24.00
   34.2252     27.55     27.51    -28.60     24.00
   34.2354     26.76     27.46    -29.35     24.00
   34.2456     27.31     27.42    -28.75     24.00
   34.2557     25.75     27.37    -30.27     24.00
   34.2659     27.23     27.33    -28.74     24.00
   34.2761     27.34     27.28    -28.59     24.00
   34.2862     26.79     27.24    -29.10     24.00
   34.2964     27.96     27.20    -27.89     24.00
   34.3066     26.45     27.16    -29.35     24.00
   34.3167     26.88     27.12    -28.88     24.00
   34.3269     26.23     27.08    -29.49     24.00
   34.3370     27.04     27.04    -28.64     24.00
   34.3472     27.15     27.00    -28.49     24.00
   34.3574     26.52     26.96    -29.08     24.00
   34.3675     26.96     26.92    -28.61     24.00
   34.3777     25.93     26.88    -29.60     24.00
   34.3879     25.76     26.85    -29.73     24.00
   34.3980     26.06     26.81    -29.39     24.00
   34.4082     26.00     26.77    -29.42     24.00
   34.4184     26.49     26.74    -28.89     24.00
   34.4285     26.70     26.70    -28.65     24.00
   34.4387     25.83     26.67    -29.48     24.00
   34.4489     25.93     26.63    -29.35     24.00
   34.4590     26.46     26.60    -28.79     24.00
   34.4692     26.20     26.57    -29.01     24.00
   34.4793     25.96     26.53    -29.22     24.00
   34.4895     26.51     26.50    -28.64     24.00
   34.4997     25.56     26.47    -29.56     24.00
   34.5098     26.34     26.44    -28.74     24.00
   34.5200     26.16     26.41    -28.89     24.00
   34.5302     25.48     26.38    -29.54     24.00
   34.5403     25.62     26.35    -29.37     24.00
   34.5505     26.57     26.32    -28.40     24.00
   34.5607     26.27     26.29    -28.67     24.00
   34.5708     26.20     26.26    -28.71     24.00
   34.5810     25.55     26.23    -29.33     24.00
   34.5912     25.65     26.21    -29.20     24.00
   34.6013     26.07     26.18    -28.76     24.00
   34.6115     25.34     26.15    -29.46     24.00
   34.6217     25.58     26.13    -29.19     24.00
   34.6318     25.52     26.10    -29.23     24.00
   34.6420     25.80     26.08    -28.92     24.00
   34.6521     25.58     26.05    -29.12     24.00
   34.6623     25.90     26.03    -28.78     24.00
   34.6725     26.06     26.01    -28.59     24.00
   34.6826     26.57     25.98    -28.06     24.00
   34.6928     25.14     25.96    -29.47     24.00
   34.7030     25.41     25.94    -29.17     24.00
   34.7131     25.97     25.92    -28.59     24.00
   34.7233     25.29     25.89    -29.25     24.00
   34.7335     26.37     25.87    -28.15     24.00
   34.7436     25.67     25.85    -28.83     24.00
   34.7538     25.84     25.83    -28.64     24.00
   34.7640     25.41     25.81    -29.05     24.00
   34.7741     26.27     25.79    -28.17     24.00
   34.7843     25.98     25.77    -28.44     24.00
   34.7944     25.73     25.76    -28.67     24.00
   34.8046     25.36     25.74    -29.02     24.00
   34.8148     25.90     25.72    -28.46     24.00
   34.8249     25.62     25.70    -28.73     24.00
   34.8351     25.91     25.68    -28.42     24.00
   34.8453     25.17     25.67    -29.14     24.00
   34.8554     26.03     25.65    -28.27     24.00
   34.8656     25.64     25.63    -28.64     24.00
   34.8758     25.85     25.62    -28.41     24.00
   34.8859     25.45     25.60    -28.80     24.00
   34.8961     26.36     25.59    -27.87     24.00
   34.9063     25.82     25.57    -28.40     24.00
   34.9164     24.68     25.56    -29.52     24.00
   34.9266     25.63     25.54    -28.56     24.00
   34.9367     25.73     25.53    -28.45     24.00
   34.9469     25.21     25.52    -28.95     24.00
   34.9571     25.95     25.50    -28.20     24.00
   34.9672     24.79     25.49    -29.34     24.00
   34.9774     25.18     25.48    -28.94     24.00
   34.9876     25.22     25.46    -28.89     24.00
   34.9977     25.23     25.45    -28.87     24.00
   35.0079     25.38     25.44    -28.70     24.00
   35.0181     25.19     25.43    -28.88     24.00
   35.0282     25.16     25.42    -28.90     24.00
   35.0384     25.77     25.40    -28.28     24.00
   35.0486     25.67     25.39    -28.37     24.00
   35.0587     24.98     25.38    -29.05     24.00
   35.0689     25.15     25.37    -28.87     24.00
   35.0791     24.70     25.36    -29.31     24.00
   35.0892     25.59     25.35    -28.41     24.00
   35.0994     25.13     25.34    -28.86     24.00
   35.1095     25.51     25.33    -28.47     24.00
   35.1197     25.77     25.32    -28.20     24.00
   35.1299     25.15     25.31    -28.81     24.00
   35.1400     25.69     25.30    -28.26     24.00
   35.1502     25.30     25.29    -28.64     24.00
   35.1604     25.18     25.28    -28.75     24.00
   35.1705     25.28     25.28    -28.64     24.00
   35.1807     25.08     25.27    -28.83     24.00
   35.1909     24.96     25.26    -28.95     24.00
   35.2010     25.23     25.25    -28.67     24.00
   35.2112     24.99     25.24    -28.90     24.00
   35.2214     26.27     25.24    -27.61     24.00
   35.2315     24.66     25.23    -29.21     24.00
   35.2417     24.84     25.22    -29.03     24.00
   35.2518     25.16     25.21    -28.70     24.00
   35.2620     24.85     25.21    -29.00     24.00
   35.2722     24.63     25.20    -29.22     24.00
   35.2823     25.13     25.19    -28.71     24.00
   35.2925     25.01     25.19    -28.82     24.00
   35.3027     25.32     25.18    -28.51     24.00
   35.3128     24.90     25.17    -28.92     24.00
   35.3230     24.96     25.17    -28.85     24.00
   35.3332     24.70     25.16    -29.11     24.00
   35.3433     25.65     25.16    -28.15     24.00
   35.3535     24.88     25.15    -28.92     24.00
   35.3637     25.09     25.14    -28.70     24.00
   35.3738     24.34     25.14    -29.44     24.00
   35.3840     25.13     25.13    -28.65     24.00
   35.3942     24.77     25.13    -29.00     24.00
   35.4043     24.65     25.12    -29.12     24.00
   35.4145     25.01     25.12    -28.75     24.00
   35.4246     24.60     25.11    -29.16     24.00
   35.4348     24.57     25.11    -29.18     24.00
   35.4450     24.22     25.10    -29.53     24.00
   35.4551     24.62     25.10    -29.12     24.00
   35.4653     24.48     25.09    -29.26     24.00
   35.4755     24.37     25.09    -29.36     24.00
   35.4856     23.95     25.08    -29.78     24.00
   35.4958     24.30     25.08    -29.43     24.00
   35.5060     24.83     25.08    -28.89     24.00
   35.5161     24.52     25.07    -29.20     24.00
   35.5263     24.62     25.07    -29.09     24.00
   35.5365     24.38     25.06    -29.33     24.00
   35.5466     24.10     25.06    -29.61     24.00
   35.5568     24.54     25.06    -29.16     24.00
   35.5669     24.23     25.05    -29.47     24.00
   35.5771     24.66     25.05    -29.03     24.00
   35.5873     24.66     25.04    -29.03     24.00
   35.5974     24.55     25.04    -29.14     24.00
   35.6076     25.00     25.04    -28.68     24.00
   35.6178     24.05     25.03    -29.63     24.00
   35.6279     24.66     25.03    -29.02     24.00
   35.6381     24.48     25.03    -29.19     24.00
   35.6483     24.80     25.02    -28.87     24.00
   35.6584     24.65     25.02    -29.02     24.00
   35.6686     24.81     25.02    -28.85     24.00
   35.6788     24.86     25.01    -28.80     24.00
   35.6889     24.73     25.01    -28.93     24.00
   35.6991     24.35     25.01    -29.30     24.00
   35.7093     24.54     25.00    -29.11     24.00
   35.7194     23.90     25.00    -29.75     24.00
   35.7296     24.46     25.00    -29.18     24.00
   35.7397     24.16     25.00    -29.48     24.00
   35.7499     24.41     24.99    -29.23     24.00
   35.7601     24.98     24.99    -28.66     24.00
   35.7702     24.05     24.99    -29.58     24.00
   35.7804     24.90     24.98    -28.73     24.00
   35.7906     24.31     24.98    -29.32     24.00
   35.8007     25.00     24.98    -28.62     24.00
   35.8109     24.73     24.98    -28.89     24.00
   35.8211     24.38     24.97    -29.24     24.00
   35.8312     24.96     24.97    -28.66     24.00
   35.8414     24.91     24.97    -28.70     24.00
   35.8516     24.66     24.97    -28.95     24.00
   35.8617     23.78     24.96    -29.83     24.00
   35.8719     24.24     24.96    -29.37     24.00
   35.8820     24.34     24.96    -29.26     24.00
   35.8922     24.82     24.96    -28.78     24.00
   35.9024     24.30     24.95    -29.30     24.00
   35.9125     24.07     24.95    -29.53     24.00
   35.9227     23.93     24.95    -29.67     24.00
   35.9329     24.80     24.95    -28.79     24.00
   35.9430     24.54     24.94    -29.05     24.00
   35.9532     24.88     24.94    -28.71     24.00
   35.9634     24.52     24.94    -29.07     24.00
   35.9735     24.09     24.94    -29.49     24.00
   35.9837     24.15     24.94    -29.43     24.00
   35.9939     24.21     24.93    -29.37     24.00
