 => TITLE: 
 => Data file name: C:\Users\stefano\Nextcloud2\uni\master-thesis\XRD\data\G109\G109--5-40-0.01-1000ms.xy
 => Instrm        :    1
 => Lambda(1&2)   :   1.54060  1.54060
 => Numb.of.points:      2951
 => Numb.of.peaks :         8
    2Theta     Yobs     Ycalc  Yobs-Ycal    Backg    Bragg     Posr  Intensity   FWHM    Eta
    6.0086     23.45     24.74    -27.92     24.00   18.6545     -2.17     132.50  0.8152  0.0001
    6.0187     23.83     24.74    -27.55     24.00   20.4586     -2.17      98.49  1.6915  0.0001
    6.0289     23.51     24.75    -27.87     24.00   22.5084     -2.17     110.44  1.1846  0.0001
    6.0391     24.24     24.75    -27.15     24.00   28.4722     -2.17      34.02  1.1043  0.0001
    6.0492     23.42     24.76    -27.97     24.00   29.8037     -2.17      30.21  2.6915  0.0001
    6.0594     23.77     24.76    -27.63     24.00   33.4325     -2.17      15.61  2.6915  0.0001
    6.0696     23.80     24.77    -27.60     24.00   17.5000     -2.17      89.13  2.6915  0.0001
    6.0797     23.76     24.77    -27.65     24.00   20.1180     -2.17     698.55 11.2376  0.0001
    6.0899     23.19     24.78    -28.22     24.00
    6.1001     23.37     24.78    -28.05     24.00
    6.1102     23.27     24.79    -28.15     24.00
    6.1204     23.74     24.79    -27.69     24.00
    6.1306     23.32     24.80    -28.11     24.00
    6.1407     23.32     24.80    -28.12     24.00
    6.1509     23.43     24.81    -28.01     24.00
    6.1611     23.74     24.81    -27.71     24.00
    6.1712     23.07     24.82    -28.38     24.00
    6.1814     23.51     24.82    -27.95     24.00
    6.1915     23.82     24.83    -27.64     24.00
    6.2017     23.46     24.83    -28.01     24.00
    6.2119     23.48     24.84    -27.99     24.00
    6.2220     22.71     24.84    -28.77     24.00
    6.2322     22.30     24.85    -29.18     24.00
    6.2424     22.59     24.85    -28.90     24.00
    6.2525     23.72     24.86    -27.77     24.00
    6.2627     22.76     24.86    -28.74     24.00
    6.2729     23.11     24.87    -28.39     24.00
    6.2830     23.68     24.87    -27.83     24.00
    6.2932     23.45     24.88    -28.07     24.00
    6.3034     23.94     24.89    -27.58     24.00
    6.3135     23.26     24.89    -28.27     24.00
    6.3237     23.54     24.90    -27.99     24.00
    6.3338     23.20     24.90    -28.34     24.00
    6.3440     23.09     24.91    -28.45     24.00
    6.3542     23.37     24.91    -28.18     24.00
    6.3643     23.68     24.92    -27.87     24.00
    6.3745     22.82     24.92    -28.74     24.00
    6.3847     23.05     24.93    -28.52     24.00
    6.3948     23.02     24.94    -28.55     24.00
    6.4050     23.20     24.94    -28.38     24.00
    6.4152     22.73     24.95    -28.85     24.00
    6.4253     23.34     24.95    -28.25     24.00
    6.4355     23.07     24.96    -28.52     24.00
    6.4457     23.01     24.96    -28.59     24.00
    6.4558     23.56     24.97    -28.05     24.00
    6.4660     22.82     24.98    -28.79     24.00
    6.4762     22.78     24.98    -28.84     24.00
    6.4863     22.82     24.99    -28.80     24.00
    6.4965     23.57     24.99    -28.06     24.00
    6.5066     23.40     25.00    -28.24     24.00
    6.5168     23.19     25.01    -28.45     24.00
    6.5270     23.27     25.01    -28.38     24.00
    6.5371     23.17     25.02    -28.48     24.00
    6.5473     23.18     25.02    -28.48     24.00
    6.5575     23.58     25.03    -28.09     24.00
    6.5676     22.87     25.04    -28.80     24.00
    6.5778     22.98     25.04    -28.70     24.00
    6.5880     23.36     25.05    -28.33     24.00
    6.5981     22.32     25.06    -29.37     24.00
    6.6083     23.67     25.06    -28.03     24.00
    6.6185     23.23     25.07    -28.48     24.00
    6.6286     23.06     25.08    -28.65     24.00
    6.6388     23.57     25.08    -28.15     24.00
    6.6489     23.18     25.09    -28.54     24.00
    6.6591     23.32     25.09    -28.41     24.00
    6.6693     23.27     25.10    -28.47     24.00
    6.6794     23.01     25.11    -28.73     24.00
    6.6896     22.98     25.11    -28.77     24.00
    6.6998     22.93     25.12    -28.83     24.00
    6.7099     23.57     25.13    -28.19     24.00
    6.7201     22.88     25.14    -28.89     24.00
    6.7303     23.83     25.14    -27.95     24.00
    6.7404     23.37     25.15    -28.41     24.00
    6.7506     23.99     25.16    -27.80     24.00
    6.7608     23.32     25.16    -28.48     24.00
    6.7709     23.54     25.17    -28.27     24.00
    6.7811     22.93     25.18    -28.88     24.00
    6.7913     23.21     25.18    -28.61     24.00
    6.8014     23.56     25.19    -28.27     24.00
    6.8116     22.84     25.20    -28.99     24.00
    6.8217     22.93     25.20    -28.91     24.00
    6.8319     24.07     25.21    -27.78     24.00
    6.8421     23.24     25.22    -28.62     24.00
    6.8522     22.91     25.23    -28.95     24.00
    6.8624     23.30     25.23    -28.57     24.00
    6.8726     23.34     25.24    -28.54     24.00
    6.8827     23.11     25.25    -28.77     24.00
    6.8929     24.01     25.26    -27.88     24.00
    6.9031     23.16     25.26    -28.74     24.00
    6.9132     24.68     25.27    -27.23     24.00
    6.9234     22.57     25.28    -29.34     24.00
    6.9336     23.16     25.29    -28.76     24.00
    6.9437     23.23     25.29    -28.70     24.00
    6.9539     23.60     25.30    -28.34     24.00
    6.9640     23.40     25.31    -28.54     24.00
    6.9742     24.40     25.32    -27.55     24.00
    6.9844     24.56     25.32    -27.40     24.00
    6.9945     23.62     25.33    -28.35     24.00
    7.0047     23.62     25.34    -28.36     24.00
    7.0149     24.60     25.35    -27.38     24.00
    7.0250     23.36     25.36    -28.63     24.00
    7.0352     24.16     25.36    -27.84     24.00
    7.0454     23.89     25.37    -28.12     24.00
    7.0555     24.01     25.38    -28.01     24.00
    7.0657     23.23     25.39    -28.79     24.00
    7.0759     23.46     25.40    -28.57     24.00
    7.0860     23.52     25.40    -28.52     24.00
    7.0962     24.30     25.41    -27.75     24.00
    7.1064     24.47     25.42    -27.59     24.00
    7.1165     23.27     25.43    -28.79     24.00
    7.1267     23.59     25.44    -28.48     24.00
    7.1368     24.96     25.44    -27.12     24.00
    7.1470     23.48     25.45    -28.61     24.00
    7.1572     23.88     25.46    -28.22     24.00
    7.1673     23.84     25.47    -28.27     24.00
    7.1775     23.70     25.48    -28.41     24.00
    7.1877     23.81     25.49    -28.31     24.00
    7.1978     24.24     25.50    -27.89     24.00
    7.2080     24.14     25.50    -28.00     24.00
    7.2182     23.96     25.51    -28.19     24.00
    7.2283     24.28     25.52    -27.88     24.00
    7.2385     23.18     25.53    -28.99     24.00
    7.2487     24.39     25.54    -27.79     24.00
    7.2588     24.84     25.55    -27.34     24.00
    7.2690     24.45     25.56    -27.74     24.00
    7.2791     24.11     25.57    -28.09     24.00
    7.2893     24.26     25.58    -27.95     24.00
    7.2995     23.08     25.58    -29.14     24.00
    7.3096     24.50     25.59    -27.73     24.00
    7.3198     24.51     25.60    -27.73     24.00
    7.3300     23.84     25.61    -28.41     24.00
    7.3401     24.83     25.62    -27.43     24.00
    7.3503     25.02     25.63    -27.25     24.00
    7.3605     23.55     25.64    -28.73     24.00
    7.3706     24.82     25.65    -27.46     24.00
    7.3808     24.80     25.66    -27.49     24.00
    7.3910     24.67     25.67    -27.63     24.00
    7.4011     24.03     25.68    -28.28     24.00
    7.4113     25.22     25.69    -27.10     24.00
    7.4215     24.45     25.70    -27.88     24.00
    7.4316     24.07     25.71    -28.27     24.00
    7.4418     23.93     25.72    -28.42     24.00
    7.4519     24.24     25.73    -28.12     24.00
    7.4621     24.63     25.73    -27.74     24.00
    7.4723     23.95     25.74    -28.43     24.00
    7.4824     25.19     25.75    -27.20     24.00
    7.4926     24.51     25.76    -27.89     24.00
    7.5028     25.25     25.77    -27.16     24.00
    7.5129     25.15     25.78    -27.27     24.00
    7.5231     25.54     25.79    -26.89     24.00
    7.5333     24.73     25.80    -27.71     24.00
    7.5434     24.52     25.81    -27.93     24.00
    7.5536     24.88     25.83    -27.58     24.00
    7.5638     25.63     25.84    -26.84     24.00
    7.5739     25.44     25.85    -27.04     24.00
    7.5841     25.05     25.86    -27.44     24.00
    7.5942     25.15     25.87    -27.35     24.00
    7.6044     25.15     25.88    -27.36     24.00
    7.6146     24.87     25.89    -27.65     24.00
    7.6247     25.65     25.90    -26.88     24.00
    7.6349     24.97     25.91    -27.57     24.00
    7.6451     24.62     25.92    -27.94     24.00
    7.6552     24.60     25.93    -27.97     24.00
    7.6654     25.07     25.94    -27.51     24.00
    7.6756     24.87     25.95    -27.72     24.00
    7.6857     24.01     25.96    -28.59     24.00
    7.6959     25.01     25.97    -27.60     24.00
    7.7061     25.11     25.98    -27.51     24.00
    7.7162     25.22     26.00    -27.41     24.00
    7.7264     24.79     26.01    -27.85     24.00
    7.7365     25.11     26.02    -27.54     24.00
    7.7467     25.46     26.03    -27.20     24.00
    7.7569     25.16     26.04    -27.52     24.00
    7.7670     25.05     26.05    -27.64     24.00
    7.7772     25.48     26.06    -27.22     24.00
    7.7874     24.48     26.07    -28.23     24.00
    7.7975     24.96     26.09    -27.76     24.00
    7.8077     25.23     26.10    -27.50     24.00
    7.8179     25.54     26.11    -27.20     24.00
    7.8280     24.94     26.12    -27.82     24.00
    7.8382     25.87     26.13    -26.90     24.00
    7.8484     25.08     26.14    -27.70     24.00
    7.8585     25.62     26.15    -27.17     24.00
    7.8687     25.20     26.17    -27.60     24.00
    7.8789     25.75     26.18    -27.06     24.00
    7.8890     25.70     26.19    -27.13     24.00
    7.8992     25.41     26.20    -27.43     24.00
    7.9093     25.83     26.21    -27.02     24.00
    7.9195     25.76     26.23    -27.10     24.00
    7.9297     25.78     26.24    -27.09     24.00
    7.9398     25.67     26.25    -27.22     24.00
    7.9500     26.50     26.26    -26.40     24.00
    7.9602     25.79     26.28    -27.12     24.00
    7.9703     26.16     26.29    -26.76     24.00
    7.9805     25.71     26.30    -27.23     24.00
    7.9907     26.70     26.31    -26.25     24.00
    8.0008     25.79     26.33    -27.17     24.00
    8.0110     25.24     26.34    -27.73     24.00
    8.0212     26.76     26.35    -26.23     24.00
    8.0313     26.51     26.36    -26.49     24.00
    8.0415     26.13     26.38    -26.88     24.00
    8.0516     26.47     26.39    -26.55     24.00
    8.0618     26.25     26.40    -26.79     24.00
    8.0720     27.31     26.41    -25.74     24.00
    8.0821     25.99     26.43    -27.07     24.00
    8.0923     26.10     26.44    -26.98     24.00
    8.1025     25.91     26.45    -27.18     24.00
    8.1126     26.33     26.47    -26.77     24.00
    8.1228     26.52     26.48    -26.60     24.00
    8.1330     25.82     26.49    -27.31     24.00
    8.1431     26.32     26.51    -26.82     24.00
    8.1533     26.56     26.52    -26.60     24.00
    8.1635     26.27     26.53    -26.90     24.00
    8.1736     25.93     26.55    -27.25     24.00
    8.1838     26.14     26.56    -27.06     24.00
    8.1940     25.77     26.57    -27.44     24.00
    8.2041     26.90     26.59    -26.32     24.00
    8.2143     26.76     26.60    -26.48     24.00
    8.2244     26.95     26.62    -26.30     24.00
    8.2346     26.97     26.63    -26.30     24.00
    8.2448     26.51     26.64    -26.77     24.00
    8.2549     26.02     26.66    -27.27     24.00
    8.2651     27.48     26.67    -25.83     24.00
    8.2753     26.77     26.69    -26.55     24.00
    8.2854     27.10     26.70    -26.24     24.00
    8.2956     27.42     26.72    -25.93     24.00
    8.3058     26.66     26.73    -26.71     24.00
    8.3159     27.38     26.74    -26.00     24.00
    8.3261     26.48     26.76    -26.91     24.00
    8.3363     27.32     26.77    -26.09     24.00
    8.3464     27.02     26.79    -26.40     24.00
    8.3566     26.70     26.80    -26.74     24.00
    8.3667     27.54     26.82    -25.91     24.00
    8.3769     26.68     26.83    -26.79     24.00
    8.3871     26.51     26.85    -26.97     24.00
    8.3972     26.30     26.86    -27.20     24.00
    8.4074     26.78     26.88    -26.73     24.00
    8.4176     26.58     26.89    -26.95     24.00
    8.4277     26.46     26.91    -27.08     24.00
    8.4379     27.23     26.92    -26.33     24.00
    8.4481     27.15     26.94    -26.42     24.00
    8.4582     26.48     26.95    -27.11     24.00
    8.4684     26.54     26.97    -27.06     24.00
    8.4786     27.90     26.98    -25.72     24.00
    8.4887     27.24     27.00    -26.39     24.00
    8.4989     26.94     27.01    -26.71     24.00
    8.5091     27.61     27.03    -26.06     24.00
    8.5192     26.68     27.05    -27.00     24.00
    8.5294     27.49     27.06    -26.21     24.00
    8.5395     27.98     27.08    -25.73     24.00
    8.5497     27.32     27.09    -26.41     24.00
    8.5599     27.44     27.11    -26.31     24.00
    8.5700     28.07     27.13    -25.69     24.00
    8.5802     27.46     27.14    -26.32     24.00
    8.5904     26.91     27.16    -26.88     24.00
    8.6005     26.96     27.17    -26.85     24.00
    8.6107     27.63     27.19    -26.20     24.00
    8.6209     27.51     27.21    -26.33     24.00
    8.6310     27.81     27.22    -26.05     24.00
    8.6412     27.91     27.24    -25.97     24.00
    8.6514     27.68     27.26    -26.21     24.00
    8.6615     28.30     27.27    -25.61     24.00
    8.6717     27.12     27.29    -26.81     24.00
    8.6818     27.39     27.31    -26.55     24.00
    8.6920     27.22     27.32    -26.74     24.00
    8.7022     28.00     27.34    -25.98     24.00
    8.7123     27.84     27.36    -26.15     24.00
    8.7225     27.57     27.37    -26.44     24.00
    8.7327     27.84     27.39    -26.19     24.00
    8.7428     28.99     27.41    -25.06     24.00
    8.7530     27.15     27.43    -26.91     24.00
    8.7632     27.67     27.44    -26.41     24.00
    8.7733     28.15     27.46    -25.95     24.00
    8.7835     27.66     27.48    -26.46     24.00
    8.7937     27.21     27.50    -26.92     24.00
    8.8038     27.96     27.51    -26.19     24.00
    8.8140     28.70     27.53    -25.47     24.00
    8.8242     27.78     27.55    -26.41     24.00
    8.8343     27.50     27.57    -26.70     24.00
    8.8445     27.97     27.59    -26.25     24.00
    8.8546     28.38     27.60    -25.86     24.00
    8.8648     27.59     27.62    -26.67     24.00
    8.8750     28.38     27.64    -25.90     24.00
    8.8851     28.35     27.66    -25.94     24.00
    8.8953     28.57     27.68    -25.74     24.00
    8.9055     29.04     27.70    -25.29     24.00
    8.9156     28.29     27.71    -26.06     24.00
    8.9258     28.57     27.73    -25.80     24.00
    8.9360     28.01     27.75    -26.38     24.00
    8.9461     28.40     27.77    -26.01     24.00
    8.9563     28.16     27.79    -26.27     24.00
    8.9665     28.35     27.81    -26.09     24.00
    8.9766     28.40     27.83    -26.06     24.00
    8.9868     29.10     27.85    -25.38     24.00
    8.9969     29.51     27.87    -24.99     24.00
    9.0071     27.83     27.88    -26.69     24.00
    9.0173     29.90     27.90    -24.64     24.00
    9.0274     29.44     27.92    -25.12     24.00
    9.0376     27.68     27.94    -26.90     24.00
    9.0478     29.10     27.96    -25.50     24.00
    9.0579     29.10     27.98    -25.52     24.00
    9.0681     29.10     28.00    -25.54     24.00
    9.0783     28.95     28.02    -25.71     24.00
    9.0884     29.30     28.04    -25.38     24.00
    9.0986     27.91     28.06    -26.79     24.00
    9.1088     29.66     28.08    -25.06     24.00
    9.1189     28.67     28.10    -26.07     24.00
    9.1291     28.79     28.12    -25.97     24.00
    9.1393     28.97     28.14    -25.81     24.00
    9.1494     29.12     28.16    -25.68     24.00
    9.1596     29.05     28.18    -25.77     24.00
    9.1697     28.91     28.20    -25.93     24.00
    9.1799     29.22     28.22    -25.64     24.00
    9.1901     28.71     28.24    -26.17     24.00
    9.2002     29.48     28.26    -25.42     24.00
    9.2104     29.14     28.29    -25.78     24.00
    9.2206     28.27     28.31    -26.67     24.00
    9.2307     29.45     28.33    -25.51     24.00
    9.2409     29.74     28.35    -25.24     24.00
    9.2511     29.04     28.37    -25.97     24.00
    9.2612     29.59     28.39    -25.44     24.00
    9.2714     29.31     28.41    -25.74     24.00
    9.2816     28.70     28.43    -26.37     24.00
    9.2917     29.30     28.46    -25.79     24.00
    9.3019     29.20     28.48    -25.91     24.00
    9.3120     28.71     28.50    -26.42     24.00
    9.3222     29.87     28.52    -25.29     24.00
    9.3324     29.01     28.54    -26.17     24.00
    9.3425     29.41     28.56    -25.79     24.00
    9.3527     28.85     28.59    -26.37     24.00
    9.3629     29.46     28.61    -25.78     24.00
    9.3730     29.73     28.63    -25.54     24.00
    9.3832     29.54     28.65    -25.75     24.00
    9.3934     29.70     28.67    -25.61     24.00
    9.4035     29.25     28.70    -26.08     24.00
    9.4137     29.70     28.72    -25.66     24.00
    9.4239     29.18     28.74    -26.20     24.00
    9.4340     29.79     28.76    -25.61     24.00
    9.4442     29.26     28.79    -26.16     24.00
    9.4544     30.65     28.81    -24.80     24.00
    9.4645     29.26     28.83    -26.21     24.00
    9.4747     29.46     28.86    -26.03     24.00
    9.4848     30.37     28.88    -25.15     24.00
    9.4950     28.90     28.90    -26.64     24.00
    9.5052     29.98     28.93    -25.58     24.00
    9.5153     30.27     28.95    -25.32     24.00
    9.5255     29.90     28.97    -25.71     24.00
    9.5357     29.89     29.00    -25.74     24.00
    9.5458     30.04     29.02    -25.62     24.00
    9.5560     29.41     29.04    -26.27     24.00
    9.5662     29.96     29.07    -25.74     24.00
    9.5763     30.26     29.09    -25.47     24.00
    9.5865     29.30     29.12    -26.45     24.00
    9.5967     30.51     29.14    -25.27     24.00
    9.6068     30.76     29.16    -25.04     24.00
    9.6170     29.89     29.19    -25.93     24.00
    9.6271     30.70     29.21    -25.15     24.00
    9.6373     30.15     29.24    -25.72     24.00
    9.6475     29.76     29.26    -26.14     24.00
    9.6576     30.38     29.29    -25.54     24.00
    9.6678     29.52     29.31    -26.43     24.00
    9.6780     30.29     29.34    -25.68     24.00
    9.6881     30.33     29.36    -25.67     24.00
    9.6983     30.10     29.39    -25.92     24.00
    9.7085     29.68     29.41    -26.37     24.00
    9.7186     29.95     29.44    -26.12     24.00
    9.7288     30.57     29.46    -25.53     24.00
    9.7390     29.99     29.49    -26.13     24.00
    9.7491     30.21     29.51    -25.94     24.00
    9.7593     29.88     29.54    -26.29     24.00
    9.7694     29.95     29.56    -26.25     24.00
    9.7796     30.35     29.59    -25.87     24.00
    9.7898     30.72     29.61    -25.53     24.00
    9.7999     30.83     29.64    -25.45     24.00
    9.8101     30.55     29.67    -25.75     24.00
    9.8203     30.50     29.69    -25.83     24.00
    9.8304     29.82     29.72    -26.53     24.00
    9.8406     31.03     29.74    -25.35     24.00
    9.8508     30.82     29.77    -25.59     24.00
    9.8609     30.70     29.80    -25.73     24.00
    9.8711     31.08     29.82    -25.38     24.00
    9.8813     30.65     29.85    -25.84     24.00
    9.8914     29.92     29.88    -26.59     24.00
    9.9016     31.79     29.90    -24.75     24.00
    9.9118     31.80     29.93    -24.77     24.00
    9.9219     30.93     29.96    -25.66     24.00
    9.9321     30.81     29.99    -25.81     24.00
    9.9422     30.95     30.01    -25.70     24.00
    9.9524     31.06     30.04    -25.62     24.00
    9.9626     31.06     30.07    -25.64     24.00
    9.9727     31.20     30.10    -25.53     24.00
    9.9829     30.91     30.12    -25.85     24.00
    9.9931     30.99     30.15    -25.80     24.00
   10.0032     30.45     30.18    -26.36     24.00
   10.0134     31.35     30.21    -25.49     24.00
   10.0236     31.05     30.23    -25.82     24.00
   10.0337     30.65     30.26    -26.25     24.00
   10.0439     31.18     30.29    -25.75     24.00
   10.0541     31.50     30.32    -25.46     24.00
   10.0642     31.58     30.35    -25.40     24.00
   10.0744     31.02     30.38    -25.99     24.00
   10.0845     31.04     30.40    -26.00     24.00
   10.0947     30.68     30.43    -26.39     24.00
   10.1049     31.06     30.46    -26.04     24.00
   10.1150     31.43     30.49    -25.70     24.00
   10.1252     32.10     30.52    -25.06     24.00
   10.1354     30.75     30.55    -26.44     24.00
   10.1455     31.22     30.58    -25.99     24.00
   10.1557     30.95     30.61    -26.29     24.00
   10.1659     31.07     30.64    -26.20     24.00
   10.1760     32.34     30.67    -24.96     24.00
   10.1862     31.94     30.70    -25.39     24.00
   10.1964     31.41     30.73    -25.95     24.00
   10.2065     31.59     30.76    -25.80     24.00
   10.2167     32.46     30.79    -24.96     24.00
   10.2269     32.49     30.82    -24.96     24.00
   10.2370     32.02     30.85    -25.46     24.00
   10.2472     32.13     30.88    -25.38     24.00
   10.2573     31.76     30.91    -25.78     24.00
   10.2675     31.44     30.94    -26.13     24.00
   10.2777     31.61     30.97    -25.99     24.00
   10.2878     31.55     31.00    -26.08     24.00
   10.2980     32.65     31.03    -25.02     24.00
   10.3082     32.51     31.06    -25.19     24.00
   10.3183     32.33     31.09    -25.40     24.00
   10.3285     31.98     31.12    -25.78     24.00
   10.3387     32.09     31.15    -25.70     24.00
   10.3488     32.32     31.18    -25.50     24.00
   10.3590     30.57     31.22    -27.28     24.00
   10.3692     31.76     31.25    -26.12     24.00
   10.3793     31.76     31.28    -26.16     24.00
   10.3895     32.04     31.31    -25.91     24.00
   10.3996     31.72     31.34    -26.26     24.00
   10.4098     31.24     31.37    -26.77     24.00
   10.4200     31.74     31.41    -26.30     24.00
   10.4301     31.49     31.44    -26.58     24.00
   10.4403     31.75     31.47    -26.36     24.00
   10.4505     31.84     31.50    -26.30     24.00
   10.4606     31.72     31.54    -26.45     24.00
   10.4708     32.96     31.57    -25.24     24.00
   10.4810     32.24     31.60    -26.00     24.00
   10.4911     32.35     31.63    -25.92     24.00
   10.5013     32.54     31.67    -25.76     24.00
   10.5115     31.80     31.70    -26.54     24.00
   10.5216     31.76     31.73    -26.61     24.00
   10.5318     31.72     31.77    -26.68     24.00
   10.5420     32.45     31.80    -25.99     24.00
   10.5521     31.65     31.83    -26.82     24.00
   10.5623     31.88     31.87    -26.62     24.00
   10.5724     31.64     31.90    -26.90     24.00
   10.5826     32.47     31.93    -26.10     24.00
   10.5928     32.23     31.97    -26.37     24.00
   10.6029     32.49     32.00    -26.15     24.00
   10.6131     33.19     32.03    -25.48     24.00
   10.6233     32.44     32.07    -26.27     24.00
   10.6334     32.59     32.10    -26.15     24.00
   10.6436     33.44     32.14    -25.33     24.00
   10.6538     33.56     32.17    -25.25     24.00
   10.6639     33.13     32.21    -25.71     24.00
   10.6741     32.04     32.24    -26.84     24.00
   10.6843     33.18     32.28    -25.73     24.00
   10.6944     32.91     32.31    -26.04     24.00
   10.7046     32.65     32.35    -26.33     24.00
   10.7147     33.36     32.38    -25.66     24.00
   10.7249     33.96     32.42    -25.09     24.00
   10.7351     33.83     32.45    -25.26     24.00
   10.7452     33.12     32.49    -26.00     24.00
   10.7554     33.12     32.52    -26.04     24.00
   10.7656     32.75     32.56    -26.44     24.00
   10.7757     33.32     32.59    -25.91     24.00
   10.7859     33.26     32.63    -26.01     24.00
   10.7961     32.16     32.67    -27.14     24.00
   10.8062     33.59     32.70    -25.75     24.00
   10.8164     33.79     32.74    -25.58     24.00
   10.8266     33.36     32.77    -26.05     24.00
   10.8367     32.90     32.81    -26.55     24.00
   10.8469     33.36     32.85    -26.12     24.00
   10.8571     34.15     32.88    -25.37     24.00
   10.8672     33.61     32.92    -25.95     24.00
   10.8774     33.26     32.96    -26.33     24.00
   10.8875     32.80     32.99    -26.83     24.00
   10.8977     33.38     33.03    -26.29     24.00
   10.9079     33.60     33.07    -26.11     24.00
   10.9180     33.80     33.11    -25.94     24.00
   10.9282     33.90     33.14    -25.88     24.00
   10.9384     33.57     33.18    -26.25     24.00
   10.9485     33.13     33.22    -26.73     24.00
   10.9587     33.62     33.26    -26.27     24.00
   10.9689     32.91     33.30    -27.02     24.00
   10.9790     33.96     33.33    -26.01     24.00
   10.9892     34.13     33.37    -25.88     24.00
   10.9994     33.90     33.41    -26.15     24.00
   11.0095     34.48     33.45    -25.60     24.00
   11.0197     33.80     33.49    -26.32     24.00
   11.0298     34.04     33.52    -26.12     24.00
   11.0400     34.31     33.56    -25.89     24.00
   11.0502     33.47     33.60    -26.77     24.00
   11.0603     33.36     33.64    -26.92     24.00
   11.0705     33.55     33.68    -26.77     24.00
   11.0807     34.53     33.72    -25.83     24.00
   11.0908     34.12     33.76    -26.27     24.00
   11.1010     33.30     33.80    -27.13     24.00
   11.1112     34.02     33.84    -26.45     24.00
   11.1213     34.95     33.88    -25.56     24.00
   11.1315     33.71     33.92    -26.84     24.00
   11.1417     33.46     33.96    -27.13     24.00
   11.1518     34.75     34.00    -25.88     24.00
   11.1620     34.63     34.04    -26.04     24.00
   11.1722     33.90     34.08    -26.81     24.00
   11.1823     34.43     34.12    -26.32     24.00
   11.1925     34.66     34.16    -26.13     24.00
   11.2026     35.20     34.20    -25.63     24.00
   11.2128     34.98     34.24    -25.89     24.00
   11.2230     33.68     34.28    -27.24     24.00
   11.2331     34.67     34.32    -26.29     24.00
   11.2433     35.00     34.36    -26.00     24.00
   11.2535     34.56     34.40    -26.48     24.00
   11.2636     34.78     34.44    -26.30     24.00
   11.2738     35.73     34.49    -25.39     24.00
   11.2840     35.30     34.53    -25.86     24.00
   11.2941     35.91     34.57    -25.29     24.00
   11.3043     35.15     34.61    -26.10     24.00
   11.3145     34.74     34.65    -26.55     24.00
   11.3246     35.46     34.69    -25.87     24.00
   11.3348     34.35     34.74    -27.02     24.00
   11.3449     35.26     34.78    -26.15     24.00
   11.3551     34.57     34.82    -26.89     24.00
   11.3653     34.63     34.86    -26.87     24.00
   11.3754     35.43     34.90    -26.11     24.00
   11.3856     35.71     34.95    -25.87     24.00
   11.3958     34.86     34.99    -26.77     24.00
   11.4059     34.22     35.03    -27.45     24.00
   11.4161     35.60     35.08    -26.11     24.00
   11.4263     35.20     35.12    -26.56     24.00
   11.4364     34.36     35.16    -27.44     24.00
   11.4466     34.99     35.21    -26.85     24.00
   11.4568     34.80     35.25    -27.09     24.00
   11.4669     34.96     35.29    -26.97     24.00
   11.4771     34.50     35.34    -27.47     24.00
   11.4873     35.50     35.38    -26.52     24.00
   11.4974     36.00     35.42    -26.06     24.00
   11.5076     35.56     35.47    -26.54     24.00
   11.5177     36.18     35.51    -25.97     24.00
   11.5279     36.05     35.56    -26.14     24.00
   11.5381     35.76     35.60    -26.48     24.00
   11.5482     35.15     35.64    -27.13     24.00
   11.5584     35.46     35.69    -26.87     24.00
   11.5686     35.27     35.73    -27.10     24.00
   11.5787     34.92     35.78    -27.49     24.00
   11.5889     35.34     35.82    -27.12     24.00
   11.5991     35.52     35.87    -26.99     24.00
   11.6092     35.36     35.91    -27.19     24.00
   11.6194     36.23     35.96    -26.37     24.00
   11.6296     37.00     36.01    -25.64     24.00
   11.6397     36.01     36.05    -26.68     24.00
   11.6499     35.70     36.10    -27.03     24.00
   11.6600     35.87     36.14    -26.91     24.00
   11.6702     35.94     36.19    -26.88     24.00
   11.6804     36.15     36.23    -26.72     24.00
   11.6905     36.49     36.28    -26.43     24.00
   11.7007     36.67     36.33    -26.29     24.00
   11.7109     35.78     36.37    -27.23     24.00
   11.7210     35.65     36.42    -27.41     24.00
   11.7312     35.85     36.47    -27.25     24.00
   11.7414     35.29     36.51    -27.86     24.00
   11.7515     36.59     36.56    -26.61     24.00
   11.7617     36.23     36.61    -27.01     24.00
   11.7719     36.69     36.65    -26.60     24.00
   11.7820     36.57     36.70    -26.77     24.00
   11.7922     37.14     36.75    -26.24     24.00
   11.8023     36.09     36.80    -27.34     24.00
   11.8125     36.22     36.84    -27.26     24.00
   11.8227     36.52     36.89    -27.01     24.00
   11.8328     37.04     36.94    -26.53     24.00
   11.8430     37.32     36.99    -26.30     24.00
   11.8532     36.31     37.03    -27.36     24.00
   11.8633     36.71     37.08    -27.01     24.00
   11.8735     37.62     37.13    -26.15     24.00
   11.8837     36.83     37.18    -26.99     24.00
   11.8938     36.81     37.23    -27.05     24.00
   11.9040     37.00     37.28    -26.91     24.00
   11.9142     37.59     37.33    -26.37     24.00
   11.9243     37.11     37.37    -26.90     24.00
   11.9345     36.82     37.42    -27.24     24.00
   11.9447     36.47     37.47    -27.64     24.00
   11.9548     37.30     37.52    -26.86     24.00
   11.9650     37.54     37.57    -26.67     24.00
   11.9751     37.92     37.62    -26.34     24.00
   11.9853     37.01     37.67    -27.30     24.00
   11.9955     36.62     37.72    -27.74     24.00
   12.0056     38.36     37.77    -26.04     24.00
   12.0158     37.34     37.82    -27.11     24.00
   12.0260     37.00     37.87    -27.51     24.00
   12.0361     39.09     37.92    -25.46     24.00
   12.0463     37.38     37.97    -27.23     24.00
   12.0565     38.07     38.02    -26.59     24.00
   12.0666     37.70     38.07    -27.01     24.00
   12.0768     37.84     38.12    -26.92     24.00
   12.0870     37.78     38.17    -27.03     24.00
   12.0971     38.12     38.22    -26.74     24.00
   12.1073     37.88     38.27    -27.03     24.00
   12.1174     37.96     38.32    -27.00     24.00
   12.1276     38.91     38.38    -26.10     24.00
   12.1378     37.28     38.43    -27.78     24.00
   12.1479     38.68     38.48    -26.43     24.00
   12.1581     38.88     38.53    -26.29     24.00
   12.1683     38.31     38.58    -26.91     24.00
   12.1784     37.58     38.63    -27.69     24.00
   12.1886     38.75     38.69    -26.57     24.00
   12.1988     37.60     38.74    -27.77     24.00
   12.2089     39.09     38.79    -26.34     24.00
   12.2191     39.86     38.84    -25.62     24.00
   12.2293     38.63     38.89    -26.90     24.00
   12.2394     38.27     38.95    -27.31     24.00
   12.2496     39.12     39.00    -26.52     24.00
   12.2598     38.90     39.05    -26.79     24.00
   12.2699     38.87     39.11    -26.87     24.00
   12.2801     38.34     39.16    -27.45     24.00
   12.2902     39.26     39.21    -26.59     24.00
   12.3004     38.04     39.26    -27.86     24.00
   12.3106     39.59     39.32    -26.36     24.00
   12.3207     39.10     39.37    -26.91     24.00
   12.3309     39.13     39.43    -26.93     24.00
   12.3411     38.96     39.48    -27.16     24.00
   12.3512     38.12     39.53    -28.05     24.00
   12.3614     38.14     39.59    -28.08     24.00
   12.3716     39.49     39.64    -26.79     24.00
   12.3817     39.36     39.69    -26.97     24.00
   12.3919     39.29     39.75    -27.10     24.00
   12.4021     40.41     39.80    -26.03     24.00
   12.4122     40.24     39.86    -26.25     24.00
   12.4224     39.62     39.91    -26.93     24.00
   12.4325     39.74     39.97    -26.86     24.00
   12.4427     39.93     40.02    -26.73     24.00
   12.4529     39.46     40.08    -27.25     24.00
   12.4630     38.79     40.13    -27.98     24.00
   12.4732     38.95     40.19    -27.87     24.00
   12.4834     39.29     40.24    -27.59     24.00
   12.4935     40.26     40.30    -26.67     24.00
   12.5037     40.34     40.35    -26.65     24.00
   12.5139     40.67     40.41    -26.38     24.00
   12.5240     40.12     40.47    -26.98     24.00
   12.5342     38.82     40.52    -28.34     24.00
   12.5444     40.13     40.58    -27.08     24.00
   12.5545     39.85     40.63    -27.42     24.00
   12.5647     40.27     40.69    -27.06     24.00
   12.5749     40.04     40.75    -27.34     24.00
   12.5850     40.33     40.80    -27.11     24.00
   12.5952     40.65     40.86    -26.85     24.00
   12.6053     41.00     40.92    -26.55     24.00
   12.6155     40.63     40.97    -26.98     24.00
   12.6257     40.62     41.03    -27.05     24.00
   12.6358     40.50     41.09    -27.22     24.00
   12.6460     39.36     41.14    -28.42     24.00
   12.6562     40.81     41.20    -27.03     24.00
   12.6663     40.75     41.26    -27.15     24.00
   12.6765     40.47     41.32    -27.48     24.00
   12.6867     40.09     41.38    -27.92     24.00
   12.6968     39.54     41.43    -28.53     24.00
   12.7070     40.95     41.49    -27.18     24.00
   12.7172     41.13     41.55    -27.06     24.00
   12.7273     40.45     41.61    -27.79     24.00
   12.7375     40.67     41.67    -27.63     24.00
   12.7476     40.84     41.72    -27.52     24.00
   12.7578     40.45     41.78    -27.97     24.00
   12.7680     41.07     41.84    -27.41     24.00
   12.7781     41.54     41.90    -27.00     24.00
   12.7883     40.95     41.96    -27.64     24.00
   12.7985     40.98     42.02    -27.67     24.00
   12.8086     41.98     42.08    -26.73     24.00
   12.8188     41.51     42.14    -27.26     24.00
   12.8290     41.68     42.20    -27.15     24.00
   12.8391     42.36     42.25    -26.53     24.00
   12.8493     42.23     42.31    -26.72     24.00
   12.8595     41.51     42.37    -27.50     24.00
   12.8696     41.52     42.43    -27.55     24.00
   12.8798     42.04     42.49    -27.09     24.00
   12.8900     42.06     42.55    -27.13     24.00
   12.9001     42.15     42.61    -27.10     24.00
   12.9103     41.96     42.68    -27.35     24.00
   12.9204     42.16     42.74    -27.21     24.00
   12.9306     42.99     42.80    -26.44     24.00
   12.9408     42.48     42.86    -27.01     24.00
   12.9509     42.77     42.92    -26.78     24.00
   12.9611     42.05     42.98    -27.56     24.00
   12.9713     43.32     43.04    -26.36     24.00
   12.9814     41.90     43.10    -27.84     24.00
   12.9916     42.48     43.16    -27.32     24.00
   13.0018     43.67     43.22    -26.19     24.00
   13.0119     41.66     43.28    -28.26     24.00
   13.0221     42.84     43.35    -27.14     24.00
   13.0323     42.98     43.41    -27.06     24.00
   13.0424     43.15     43.47    -26.96     24.00
   13.0526     43.16     43.53    -27.01     24.00
   13.0627     43.86     43.59    -26.37     24.00
   13.0729     43.91     43.66    -26.38     24.00
   13.0831     43.08     43.72    -27.28     24.00
   13.0932     43.00     43.78    -27.42     24.00
   13.1034     43.81     43.84    -26.67     24.00
   13.1136     43.32     43.91    -27.22     24.00
   13.1237     43.65     43.97    -26.96     24.00
   13.1339     44.06     44.03    -26.61     24.00
   13.1441     42.97     44.10    -27.76     24.00
   13.1542     43.46     44.16    -27.34     24.00
   13.1644     43.97     44.22    -26.89     24.00
   13.1746     44.47     44.29    -26.45     24.00
   13.1847     44.07     44.35    -26.92     24.00
   13.1949     43.77     44.41    -27.28     24.00
   13.2051     44.80     44.48    -26.31     24.00
   13.2152     43.77     44.54    -27.41     24.00
   13.2254     44.87     44.61    -26.37     24.00
   13.2355     45.05     44.67    -26.26     24.00
   13.2457     44.60     44.73    -26.77     24.00
   13.2559     44.25     44.80    -27.19     24.00
   13.2660     45.07     44.86    -26.43     24.00
   13.2762     44.10     44.93    -27.47     24.00
   13.2864     43.85     44.99    -27.78     24.00
   13.2965     44.93     45.06    -26.76     24.00
   13.3067     44.43     45.12    -27.33     24.00
   13.3169     45.15     45.19    -26.68     24.00
   13.3270     43.90     45.26    -27.99     24.00
   13.3372     44.29     45.32    -27.67     24.00
   13.3474     45.66     45.39    -26.36     24.00
   13.3575     45.42     45.45    -26.67     24.00
   13.3677     44.73     45.52    -27.42     24.00
   13.3778     45.45     45.58    -26.77     24.00
   13.3880     44.60     45.65    -27.69     24.00
   13.3982     46.28     45.72    -26.07     24.00
   13.4083     45.14     45.78    -27.28     24.00
   13.4185     45.60     45.85    -26.89     24.00
   13.4287     45.59     45.92    -26.96     24.00
   13.4388     46.32     45.99    -26.30     24.00
   13.4490     45.10     46.05    -27.59     24.00
   13.4592     45.82     46.12    -26.94     24.00
   13.4693     46.47     46.19    -26.35     24.00
   13.4795     46.53     46.26    -26.36     24.00
   13.4897     46.34     46.32    -26.62     24.00
   13.4998     46.28     46.39    -26.75     24.00
   13.5100     46.47     46.46    -26.63     24.00
   13.5201     46.08     46.53    -27.08     24.00
   13.5303     47.38     46.60    -25.85     24.00
   13.5405     47.10     46.66    -26.20     24.00
   13.5506     47.00     46.73    -26.37     24.00
   13.5608     47.38     46.80    -26.06     24.00
   13.5710     47.16     46.87    -26.35     24.00
   13.5811     46.90     46.94    -26.68     24.00
   13.5913     46.53     47.01    -27.12     24.00
   13.6015     46.40     47.08    -27.32     24.00
   13.6116     48.13     47.15    -25.65     24.00
   13.6218     47.28     47.22    -26.58     24.00
   13.6320     47.25     47.29    -26.68     24.00
   13.6421     47.71     47.36    -26.29     24.00
   13.6523     47.32     47.43    -26.75     24.00
   13.6625     46.82     47.50    -27.32     24.00
   13.6726     47.91     47.57    -26.30     24.00
   13.6828     48.29     47.64    -25.99     24.00
   13.6929     48.16     47.71    -26.19     24.00
   13.7031     48.32     47.78    -26.10     24.00
   13.7133     48.54     47.86    -25.95     24.00
   13.7234     48.24     47.93    -26.32     24.00
   13.7336     49.05     48.00    -25.59     24.00
   13.7438     47.77     48.07    -26.94     24.00
   13.7539     47.95     48.14    -26.83     24.00
   13.7641     48.59     48.22    -26.26     24.00
   13.7743     49.12     48.29    -25.81     24.00
   13.7844     48.07     48.36    -26.93     24.00
   13.7946     49.51     48.44    -25.56     24.00
   13.8048     49.47     48.51    -25.67     24.00
   13.8149     48.40     48.58    -26.82     24.00
   13.8251     48.78     48.66    -26.51     24.00
   13.8352     50.46     48.73    -24.91     24.00
   13.8454     48.64     48.80    -26.80     24.00
   13.8556     49.02     48.88    -26.49     24.00
   13.8657     49.65     48.95    -25.94     24.00
   13.8759     50.03     49.03    -25.63     24.00
   13.8861     49.14     49.10    -26.60     24.00
   13.8962     50.90     49.18    -24.91     24.00
   13.9064     49.53     49.25    -26.36     24.00
   13.9166     50.54     49.33    -25.43     24.00
   13.9267     49.34     49.40    -26.70     24.00
   13.9369     50.77     49.48    -25.35     24.00
   13.9471     49.96     49.56    -26.23     24.00
   13.9572     51.06     49.63    -25.21     24.00
   13.9674     50.52     49.71    -25.83     24.00
   13.9776     50.48     49.79    -25.94     24.00
   13.9877     50.35     49.87    -26.15     24.00
   13.9979     50.14     49.94    -26.44     24.00
   14.0080     50.59     50.02    -26.07     24.00
   14.0182     50.98     50.10    -25.76     24.00
   14.0284     51.54     50.18    -25.27     24.00
   14.0385     51.40     50.26    -25.49     24.00
   14.0487     51.19     50.34    -25.78     24.00
   14.0589     51.37     50.42    -25.68     24.00
   14.0690     51.13     50.49    -26.00     24.00
   14.0792     51.90     50.58    -25.31     24.00
   14.0894     51.13     50.66    -26.16     24.00
   14.0995     50.56     50.74    -26.81     24.00
   14.1097     52.40     50.82    -25.05     24.00
   14.1199     51.82     50.90    -25.71     24.00
   14.1300     51.78     50.98    -25.84     24.00
   14.1402     52.97     51.06    -24.73     24.00
   14.1503     51.72     51.14    -26.06     24.00
   14.1605     52.04     51.23    -25.82     24.00
   14.1707     52.72     51.31    -25.22     24.00
   14.1808     51.15     51.39    -26.88     24.00
   14.1910     53.16     51.47    -24.95     24.00
   14.2012     53.18     51.56    -25.01     24.00
   14.2113     52.66     51.64    -25.62     24.00
   14.2215     52.78     51.73    -25.58     24.00
   14.2317     52.48     51.81    -25.97     24.00
   14.2418     53.21     51.90    -25.32     24.00
   14.2520     53.96     51.98    -24.66     24.00
   14.2622     51.96     52.07    -26.74     24.00
   14.2723     53.75     52.15    -25.04     24.00
   14.2825     54.91     52.24    -23.97     24.00
   14.2927     53.64     52.33    -25.32     24.00
   14.3028     54.04     52.42    -25.01     24.00
   14.3130     54.24     52.50    -24.90     24.00
   14.3231     53.60     52.59    -25.63     24.00
   14.3333     54.09     52.68    -25.23     24.00
   14.3435     55.75     52.77    -23.66     24.00
   14.3536     53.92     52.86    -25.57     24.00
   14.3638     54.34     52.95    -25.24     24.00
   14.3740     54.24     53.04    -25.44     24.00
   14.3841     55.77     53.13    -24.00     24.00
   14.3943     54.77     53.22    -25.09     24.00
   14.4045     54.70     53.31    -25.25     24.00
   14.4146     55.44     53.40    -24.60     24.00
   14.4248     54.88     53.50    -25.25     24.00
   14.4350     55.64     53.59    -24.59     24.00
   14.4451     54.71     53.68    -25.61     24.00
   14.4553     55.06     53.78    -25.35     24.00
   14.4654     55.95     53.87    -24.56     24.00
   14.4756     57.02     53.97    -23.58     24.00
   14.4858     56.27     54.06    -24.43     24.00
   14.4959     55.82     54.16    -24.97     24.00
   14.5061     55.55     54.25    -25.34     24.00
   14.5163     55.40     54.35    -25.59     24.00
   14.5264     56.39     54.45    -24.69     24.00
   14.5366     56.64     54.55    -24.54     24.00
   14.5468     57.20     54.65    -24.08     24.00
   14.5569     56.79     54.74    -24.59     24.00
   14.5671     56.57     54.84    -24.91     24.00
   14.5773     57.38     54.95    -24.20     24.00
   14.5874     57.55     55.05    -24.13     24.00
   14.5976     56.54     55.15    -25.24     24.00
   14.6078     57.46     55.25    -24.43     24.00
   14.6179     57.12     55.35    -24.87     24.00
   14.6281     56.77     55.45    -25.32     24.00
   14.6382     57.10     55.56    -25.09     24.00
   14.6484     56.68     55.66    -25.62     24.00
   14.6586     57.57     55.77    -24.83     24.00
   14.6687     57.83     55.87    -24.68     24.00
   14.6789     58.72     55.98    -23.90     24.00
   14.6891     58.49     56.09    -24.23     24.00
   14.6992     57.97     56.19    -24.86     24.00
   14.7094     57.60     56.30    -25.34     24.00
   14.7196     57.79     56.41    -25.26     24.00
   14.7297     57.95     56.52    -25.21     24.00
   14.7399     57.87     56.63    -25.40     24.00
   14.7501     58.86     56.74    -24.52     24.00
   14.7602     58.84     56.85    -24.65     24.00
   14.7704     59.12     56.96    -24.48     24.00
   14.7805     58.28     57.08    -25.43     24.00
   14.7907     59.78     57.19    -24.05     24.00
   14.8009     59.54     57.31    -24.40     24.00
   14.8110     58.56     57.42    -25.50     24.00
   14.8212     60.49     57.54    -23.68     24.00
   14.8314     60.03     57.65    -24.26     24.00
   14.8415     58.64     57.77    -25.77     24.00
   14.8517     60.52     57.89    -24.00     24.00
   14.8619     60.58     58.01    -24.06     24.00
   14.8720     61.66     58.13    -23.10     24.00
   14.8822     62.29     58.25    -22.59     24.00
   14.8924     61.01     58.37    -23.99     24.00
   14.9025     61.79     58.49    -23.34     24.00
   14.9127     60.34     58.61    -24.91     24.00
   14.9229     61.74     58.74    -23.63     24.00
   14.9330     60.66     58.86    -24.84     24.00
   14.9432     62.60     58.99    -23.02     24.00
   14.9533     62.35     59.11    -23.40     24.00
   14.9635     61.18     59.24    -24.69     24.00
   14.9737     61.54     59.37    -24.46     24.00
   14.9838     62.77     59.49    -23.36     24.00
   14.9940     61.15     59.62    -25.11     24.00
   15.0042     61.41     59.75    -24.98     24.00
   15.0143     61.44     59.89    -25.08     24.00
   15.0245     62.75     60.02    -23.90     24.00
   15.0347     61.28     60.15    -25.51     24.00
   15.0448     62.96     60.28    -23.96     24.00
   15.0550     64.03     60.42    -23.03     24.00
   15.0652     62.61     60.56    -24.58     24.00
   15.0753     63.60     60.69    -23.73     24.00
   15.0855     63.18     60.83    -24.29     24.00
   15.0956     63.43     60.97    -24.17     24.00
   15.1058     63.58     61.11    -24.16     24.00
   15.1160     63.44     61.25    -24.44     24.00
   15.1261     63.91     61.39    -24.11     24.00
   15.1363     63.69     61.53    -24.48     24.00
   15.1465     64.24     61.67    -24.07     24.00
   15.1566     63.02     61.82    -25.43     24.00
   15.1668     65.49     61.96    -23.11     24.00
   15.1770     64.02     62.11    -24.73     24.00
   15.1871     64.65     62.26    -24.24     24.00
   15.1973     65.26     62.40    -23.78     24.00
   15.2075     66.57     62.55    -22.62     24.00
   15.2176     63.55     62.70    -25.79     24.00
   15.2278     65.76     62.86    -23.73     24.00
   15.2380     64.90     63.01    -24.74     24.00
   15.2481     65.52     63.16    -24.28     24.00
   15.2583     65.60     63.31    -24.35     24.00
   15.2684     65.28     63.47    -24.82     24.00
   15.2786     67.35     63.63    -22.91     24.00
   15.2888     66.45     63.78    -23.97     24.00
   15.2989     66.32     63.94    -24.26     24.00
   15.3091     66.32     64.10    -24.42     24.00
   15.3193     67.57     64.26    -23.33     24.00
   15.3294     65.84     64.42    -25.22     24.00
   15.3396     66.82     64.59    -24.40     24.00
   15.3498     67.63     64.75    -23.76     24.00
   15.3599     66.49     64.91    -25.06     24.00
   15.3701     66.94     65.08    -24.78     24.00
   15.3803     67.40     65.25    -24.48     24.00
   15.3904     66.82     65.41    -25.23     24.00
   15.4006     67.33     65.58    -24.89     24.00
   15.4107     67.38     65.75    -25.01     24.00
   15.4209     68.16     65.92    -24.40     24.00
   15.4311     67.71     66.10    -25.02     24.00
   15.4412     68.21     66.27    -24.69     24.00
   15.4514     68.43     66.44    -24.65     24.00
   15.4616     68.07     66.62    -25.19     24.00
   15.4717     69.18     66.79    -24.25     24.00
   15.4819     69.38     66.97    -24.23     24.00
   15.4921     68.74     67.15    -25.05     24.00
   15.5022     68.91     67.33    -25.06     24.00
   15.5124     69.10     67.51    -25.05     24.00
   15.5226     69.81     67.70    -24.52     24.00
   15.5327     68.60     67.88    -25.91     24.00
   15.5429     70.47     68.06    -24.23     24.00
   15.5530     69.99     68.25    -24.89     24.00
   15.5632     69.54     68.43    -25.53     24.00
   15.5734     69.90     68.62    -25.36     24.00
   15.5835     70.24     68.81    -25.20     24.00
   15.5937     70.47     69.00    -25.16     24.00
   15.6039     70.96     69.19    -24.87     24.00
   15.6140     70.63     69.38    -25.39     24.00
   15.6242     71.78     69.57    -24.43     24.00
   15.6344     72.04     69.77    -24.36     24.00
   15.6445     72.47     69.96    -24.13     24.00
   15.6547     70.80     70.16    -25.99     24.00
   15.6649     72.09     70.36    -24.90     24.00
   15.6750     72.31     70.55    -24.88     24.00
   15.6852     72.45     70.75    -24.94     24.00
   15.6954     72.61     70.95    -24.98     24.00
   15.7055     73.25     71.15    -24.54     24.00
   15.7157     71.69     71.36    -26.30     24.00
   15.7258     72.80     71.56    -25.39     24.00
   15.7360     73.07     71.76    -25.33     24.00
   15.7462     72.85     71.97    -25.75     24.00
   15.7563     72.25     72.17    -26.56     24.00
   15.7665     72.45     72.38    -26.57     24.00
   15.7767     74.05     72.59    -25.18     24.00
   15.7868     73.28     72.80    -26.15     24.00
   15.7970     74.29     73.01    -25.35     24.00
   15.8072     73.55     73.22    -26.31     24.00
   15.8173     74.46     73.43    -25.61     24.00
   15.8275     73.17     73.64    -27.11     24.00
   15.8377     75.25     73.86    -25.25     24.00
   15.8478     74.40     74.07    -26.31     24.00
   15.8580     75.10     74.29    -25.83     24.00
   15.8681     75.23     74.50    -25.91     24.00
   15.8783     74.20     74.72    -27.16     24.00
   15.8885     74.65     74.94    -26.93     24.00
   15.8986     75.59     75.16    -26.21     24.00
   15.9088     74.87     75.38    -27.15     24.00
   15.9190     76.15     75.60    -26.09     24.00
   15.9291     76.38     75.82    -26.08     24.00
   15.9393     74.65     76.05    -28.03     24.00
   15.9495     76.42     76.27    -26.49     24.00
   15.9596     76.74     76.49    -26.39     24.00
   15.9698     74.98     76.72    -28.37     24.00
   15.9800     76.54     76.94    -27.04     24.00
   15.9901     77.71     77.17    -26.10     24.00
   16.0003     77.51     77.40    -26.52     24.00
   16.0105     77.73     77.63    -26.53     24.00
   16.0206     76.77     77.85    -27.72     24.00
   16.0308     77.25     78.08    -27.47     24.00
   16.0409     78.74     78.31    -26.21     24.00
   16.0511     78.00     78.54    -27.18     24.00
   16.0613     78.51     78.77    -26.90     24.00
   16.0714     78.27     79.00    -27.37     24.00
   16.0816     78.65     79.24    -27.22     24.00
   16.0918     79.08     79.47    -27.03     24.00
   16.1019     78.76     79.70    -27.58     24.00
   16.1121     79.20     79.94    -27.37     24.00
   16.1223     78.56     80.17    -28.25     24.00
   16.1324     78.54     80.41    -28.50     24.00
   16.1426     80.07     80.64    -27.21     24.00
   16.1528     78.69     80.88    -28.83     24.00
   16.1629     80.09     81.11    -27.66     24.00
   16.1731     80.40     81.35    -27.59     24.00
   16.1832     80.76     81.59    -27.46     24.00
   16.1934     79.93     81.82    -28.53     24.00
   16.2036     80.38     82.06    -28.32     24.00
   16.2137     80.33     82.30    -28.61     24.00
   16.2239     81.10     82.54    -28.07     24.00
   16.2341     81.63     82.78    -27.78     24.00
   16.2442     82.50     83.02    -27.15     24.00
   16.2544     81.74     83.25    -28.15     24.00
   16.2646     81.80     83.49    -28.33     24.00
   16.2747     81.41     83.73    -28.96     24.00
   16.2849     81.88     83.97    -28.73     24.00
   16.2951     81.67     84.21    -29.18     24.00
   16.3052     83.05     84.45    -28.04     24.00
   16.3154     85.16     84.69    -26.17     24.00
   16.3256     82.99     84.93    -28.58     24.00
   16.3357     83.52     85.17    -28.29     24.00
   16.3459     85.03     85.41    -27.02     24.00
   16.3560     84.70     85.65    -27.59     24.00
   16.3662     82.73     85.89    -29.80     24.00
   16.3764     84.93     86.13    -27.84     24.00
   16.3865     83.83     86.37    -29.17     24.00
   16.3967     86.66     86.61    -26.58     24.00
   16.4069     85.16     86.85    -28.32     24.00
   16.4170     84.39     87.09    -29.33     24.00
   16.4272     84.88     87.32    -29.08     24.00
   16.4374     85.51     87.56    -28.69     24.00
   16.4475     86.21     87.80    -28.23     24.00
   16.4577     86.37     88.04    -28.31     24.00
   16.4679     85.64     88.28    -29.27     24.00
   16.4780     86.65     88.51    -28.50     24.00
   16.4882     86.80     88.75    -28.59     24.00
   16.4983     86.41     88.98    -29.21     24.00
   16.5085     88.38     89.22    -27.48     24.00
   16.5187     87.33     89.46    -28.76     24.00
   16.5288     87.86     89.69    -28.47     24.00
   16.5390     88.46     89.93    -28.10     24.00
   16.5492     86.55     90.16    -30.25     24.00
   16.5593     88.38     90.39    -28.65     24.00
   16.5695     88.57     90.62    -28.69     24.00
   16.5797     88.18     90.86    -29.31     24.00
   16.5898     89.25     91.09    -28.47     24.00
   16.6000     90.71     91.32    -27.24     24.00
   16.6102     88.05     91.55    -30.13     24.00
   16.6203     89.13     91.77    -29.28     24.00
   16.6305     90.43     92.00    -28.21     24.00
   16.6407     88.80     92.23    -30.07     24.00
   16.6508     90.32     92.45    -28.77     24.00
   16.6610     90.95     92.68    -28.37     24.00
   16.6711     89.34     92.90    -30.20     24.00
   16.6813     91.90     93.13    -27.86     24.00
   16.6915     91.64     93.35    -28.34     24.00
   16.7016     90.20     93.57    -30.00     24.00
   16.7118     90.79     93.79    -29.63     24.00
   16.7220     93.54     94.01    -27.10     24.00
   16.7321     91.45     94.22    -29.41     24.00
   16.7423     92.44     94.44    -28.64     24.00
   16.7525     91.08     94.66    -30.21     24.00
   16.7626     92.87     94.87    -28.64     24.00
   16.7728     92.57     95.08    -29.15     24.00
   16.7830     93.59     95.29    -28.34     24.00
   16.7931     93.34     95.50    -28.80     24.00
   16.8033     94.61     95.71    -27.74     24.00
   16.8134     94.06     95.92    -28.49     24.00
   16.8236     92.79     96.13    -29.97     24.00
   16.8338     93.99     96.33    -28.98     24.00
   16.8439     94.28     96.53    -28.89     24.00
   16.8541     94.27     96.73    -29.10     24.00
   16.8643     94.76     96.93    -28.81     24.00
   16.8744     95.61     97.13    -28.16     24.00
   16.8846     94.31     97.33    -29.66     24.00
   16.8948     94.71     97.52    -29.45     24.00
   16.9049     96.16     97.72    -28.19     24.00
   16.9151     95.71     97.91    -28.84     24.00
   16.9253     95.53     98.10    -29.21     24.00
   16.9354     95.22     98.29    -29.70     24.00
   16.9456     97.02     98.47    -28.09     24.00
   16.9558     95.16     98.66    -30.14     24.00
   16.9659     97.12     98.84    -28.36     24.00
   16.9761     96.04     99.02    -29.62     24.00
   16.9862     95.45     99.20    -30.39     24.00
   16.9964     97.10     99.38    -28.92     24.00
   17.0066     95.65     99.56    -30.54     24.00
   17.0167     96.58     99.73    -29.79     24.00
   17.0269     97.06     99.90    -29.48     24.00
   17.0371     96.79    100.07    -29.92     24.00
   17.0472     98.73    100.24    -28.14     24.00
   17.0574     97.79    100.41    -29.25     24.00
   17.0676     98.36    100.57    -28.85     24.00
   17.0777     95.95    100.73    -31.42     24.00
   17.0879     98.23    100.89    -29.30     24.00
   17.0981     98.52    101.05    -29.17     24.00
   17.1082     99.09    101.20    -28.75     24.00
   17.1184     97.97    101.36    -30.02     24.00
   17.1285     99.98    101.51    -28.17     24.00
   17.1387    100.47    101.66    -27.83     24.00
   17.1489     99.93    101.81    -28.51     24.00
   17.1590     98.55    101.95    -30.04     24.00
   17.1692     99.33    102.10    -29.40     24.00
   17.1794     99.87    102.24    -29.00     24.00
   17.1895     99.56    102.38    -29.45     24.00
   17.1997    100.22    102.51    -28.93     24.00
   17.2099    100.21    102.65    -29.07     24.00
   17.2200    100.04    102.78    -29.38     24.00
   17.2302    101.37    102.91    -28.18     24.00
   17.2404    102.46    103.04    -27.22     24.00
   17.2505    101.45    103.17    -28.36     24.00
   17.2607    101.41    103.30    -28.52     24.00
   17.2709    101.98    103.42    -28.08     24.00
   17.2810    101.05    103.54    -29.13     24.00
   17.2912    102.84    103.66    -27.46     24.00
   17.3013    102.72    103.78    -27.69     24.00
   17.3115    101.48    103.90    -29.05     24.00
   17.3217    103.92    104.01    -26.73     24.00
   17.3318    104.21    104.13    -26.55     24.00
   17.3420    103.79    104.24    -27.08     24.00
   17.3522    104.07    104.35    -26.92     24.00
   17.3623    105.60    104.46    -25.50     24.00
   17.3725    102.03    104.57    -29.18     24.00
   17.3827    105.96    104.68    -25.35     24.00
   17.3928    106.21    104.79    -25.21     24.00
   17.4030    103.39    104.89    -28.14     24.00
   17.4132    104.22    105.00    -27.42     24.00
   17.4233    104.90    105.11    -26.84     24.00
   17.4335    105.48    105.22    -26.37     24.00
   17.4436    106.21    105.32    -25.75     24.00
   17.4538    106.54    105.43    -25.53     24.00
   17.4640    106.49    105.54    -25.69     24.00
   17.4741    107.70    105.65    -24.59     24.00
   17.4843    107.89    105.77    -24.51     24.00
   17.4945    107.20    105.88    -25.32     24.00
   17.5046    106.23    106.00    -26.40     24.00
   17.5148    108.80    106.12    -23.95     24.00
   17.5250    107.54    106.24    -25.34     24.00
   17.5351    108.07    106.37    -24.93     24.00
   17.5453    109.95    106.50    -23.18     24.00
   17.5555    108.43    106.63    -24.84     24.00
   17.5656    109.10    106.77    -24.31     24.00
   17.5758    110.39    106.92    -23.16     24.00
   17.5859    108.87    107.07    -24.83     24.00
   17.5961    110.66    107.23    -23.20     24.00
   17.6063    112.02    107.40    -22.01     24.00
   17.6164    112.32    107.57    -21.89     24.00
   17.6266    110.25    107.76    -24.14     24.00
   17.6368    113.07    107.95    -21.52     24.00
   17.6469    111.38    108.16    -23.41     24.00
   17.6571    111.70    108.37    -23.31     24.00
   17.6673    113.37    108.60    -21.87     24.00
   17.6774    113.04    108.85    -22.44     24.00
   17.6876    114.21    109.11    -21.53     24.00
   17.6978    115.98    109.38    -20.04     24.00
   17.7079    114.51    109.67    -21.80     24.00
   17.7181    114.84    109.98    -21.78     24.00
   17.7283    117.78    110.31    -19.16     24.00
   17.7384    116.36    110.65    -20.93     24.00
   17.7486    116.87    111.02    -20.79     24.00
   17.7587    117.90    111.41    -20.15     24.00
   17.7689    117.57    111.83    -20.90     24.00
   17.7791    117.21    112.27    -21.70     24.00
   17.7892    119.73    112.74    -19.65     24.00
   17.7994    119.11    113.24    -20.76     24.00
   17.8096    119.68    113.76    -20.72     24.00
   17.8197    121.96    114.32    -18.99     24.00
   17.8299    120.30    114.91    -21.25     24.00
   17.8401    120.93    115.53    -21.24     24.00
   17.8502    124.22    116.19    -18.60     24.00
   17.8604    123.58    116.89    -19.94     24.00
   17.8706    124.21    117.62    -20.05     24.00
   17.8807    126.49    118.39    -18.54     24.00
   17.8909    126.01    119.21    -19.83     24.00
   17.9010    125.23    120.06    -21.47     24.00
   17.9112    127.09    120.96    -20.51     24.00
   17.9214    127.50    121.91    -21.05     24.00
   17.9315    126.89    122.90    -22.65     24.00
   17.9417    130.50    123.95    -20.08     24.00
   17.9519    130.02    125.04    -21.66     24.00
   17.9620    129.64    126.17    -23.17     24.00
   17.9722    132.05    127.37    -21.96     24.00
   17.9824    131.70    128.62    -23.56     24.00
   17.9925    134.91    129.91    -21.64     24.00
   18.0027    134.94    131.27    -22.97     24.00
   18.0129    135.21    132.69    -24.11     24.00
   18.0230    137.09    134.14    -23.69     24.00
   18.0332    138.07    135.67    -24.23     24.00
   18.0434    136.11    137.25    -27.78     24.00
   18.0535    139.40    138.88    -26.11     24.00
   18.0637    142.32    140.58    -24.89     24.00
   18.0738    141.43    142.31    -27.52     24.00
   18.0840    142.52    144.13    -28.24     24.00
   18.0942    145.25    146.00    -27.38     24.00
   18.1043    147.22    147.90    -27.32     24.00
   18.1145    146.60    149.89    -29.92     24.00
   18.1247    151.59    151.92    -26.97     24.00
   18.1348    151.76    154.00    -28.87     24.00
   18.1450    153.32    156.14    -29.45     24.00
   18.1552    155.45    158.33    -29.52     24.00
   18.1653    157.07    160.56    -30.12     24.00
   18.1755    157.77    162.85    -31.71     24.00
   18.1857    159.91    165.18    -31.91     24.00
   18.1958    160.52    167.54    -33.66     24.00
   18.2060    162.48    169.96    -34.12     24.00
   18.2161    167.20    172.40    -31.83     24.00
   18.2263    168.38    174.89    -33.15     24.00
   18.2365    169.20    177.42    -34.85     24.00
   18.2466    172.60    179.95    -33.98     24.00
   18.2568    173.76    182.53    -35.40     24.00
   18.2670    177.41    185.13    -34.35     24.00
   18.2771    181.70    187.72    -32.65     24.00
   18.2873    181.87    190.35    -35.12     24.00
   18.2975    183.20    192.99    -36.43     24.00
   18.3076    188.63    195.61    -33.62     24.00
   18.3178    190.40    198.26    -34.49     24.00
   18.3280    192.07    200.90    -35.46     24.00
   18.3381    196.83    203.50    -33.31     24.00
   18.3483    197.80    206.12    -34.96     24.00
   18.3585    201.24    208.72    -34.11     24.00
   18.3686    204.27    211.27    -33.63     24.00
   18.3788    208.45    213.81    -32.00     24.00
   18.3889    207.06    216.29    -35.87     24.00
   18.3991    213.96    218.76    -31.44     24.00
   18.4093    217.17    221.19    -30.65     24.00
   18.4194    217.02    223.53    -33.15     24.00
   18.4296    223.79    225.85    -28.70     24.00
   18.4398    226.39    228.11    -28.35     24.00
   18.4499    225.89    230.27    -31.02     24.00
   18.4601    232.06    232.39    -26.97     24.00
   18.4703    234.91    234.43    -26.16     24.00
   18.4804    237.90    236.37    -25.11     24.00
   18.4906    242.79    238.25    -22.09     24.00
   18.5008    242.39    240.03    -24.27     24.00
   18.5109    247.09    241.70    -21.25     24.00
   18.5211    249.01    243.29    -20.92     24.00
   18.5312    251.09    244.76    -20.31     24.00
   18.5414    252.46    246.14    -20.32     24.00
   18.5516    256.11    247.41    -17.93     24.00
   18.5617    256.98    248.55    -18.21     24.00
   18.5719    258.78    249.59    -17.45     24.00
   18.5821    260.29    250.51    -16.86     24.00
   18.5922    263.19    251.30    -14.74     24.00
   18.6024    264.03    251.97    -14.58     24.00
   18.6126    264.62    252.52    -14.53     24.00
   18.6227    264.74    252.93    -14.83     24.00
   18.6329    264.27    253.23    -15.59     24.00
   18.6431    265.84    253.39    -14.18     24.00
   18.6532    266.98    253.42    -13.08     24.00
   18.6634    264.93    253.32    -15.03     24.00
   18.6736    265.22    253.10    -14.51     24.00
   18.6837    263.24    252.74    -16.14     24.00
   18.6939    260.99    252.26    -17.91     24.00
   18.7040    264.99    251.65    -13.30     24.00
   18.7142    260.55    250.92    -17.01     24.00
   18.7244    259.41    250.06    -17.29     24.00
   18.7345    258.49    249.09    -17.23     24.00
   18.7447    257.96    247.99    -16.66     24.00
   18.7549    255.99    246.77    -17.42     24.00
   18.7650    250.49    245.46    -21.60     24.00
   18.7752    249.60    244.02    -21.06     24.00
   18.7854    245.94    242.48    -23.17     24.00
   18.7955    242.91    240.85    -24.57     24.00
   18.8057    241.73    239.10    -24.01     24.00
   18.8159    237.83    237.26    -26.07     24.00
   18.8260    234.32    235.35    -27.67     24.00
   18.8362    231.87    233.34    -28.11     24.00
   18.8463    226.82    231.27    -31.09     24.00
   18.8565    225.50    229.11    -30.24     24.00
   18.8667    222.85    226.87    -30.66     24.00
   18.8768    217.27    224.60    -33.96     24.00
   18.8870    217.90    222.24    -30.97     24.00
   18.8972    216.77    219.82    -29.69     24.00
   18.9073    208.70    217.39    -35.32     24.00
   18.9175    207.98    214.88    -33.54     24.00
   18.9277    205.04    212.34    -33.94     24.00
   18.9378    199.79    209.79    -36.64     24.00
   18.9480    198.59    207.19    -35.24     24.00
   18.9582    196.99    204.57    -34.22     24.00
   18.9683    192.71    201.96    -35.89     24.00
   18.9785    191.24    199.31    -34.71     24.00
   18.9887    184.91    196.66    -38.38     24.00
   18.9988    181.82    194.03    -38.84     24.00
   19.0090    184.42    191.38    -33.59     24.00
   19.0191    179.29    188.76    -36.11     24.00
   19.0293    177.81    186.13    -34.96     24.00
   19.0395    175.87    183.52    -34.29     24.00
   19.0496    173.81    180.96    -33.78     24.00
   19.0598    170.35    178.39    -34.68     24.00
   19.0700    169.30    175.86    -33.19     24.00
   19.0801    167.49    173.38    -32.53     24.00
   19.0903    165.79    170.92    -31.76     24.00
   19.1005    163.67    168.50    -31.46     24.00
   19.1106    159.41    166.14    -33.37     24.00
   19.1208    157.17    163.81    -33.27     24.00
   19.1310    157.65    161.52    -30.51     24.00
   19.1411    154.50    159.31    -31.45     24.00
   19.1513    153.82    157.13    -29.95     24.00
   19.1614    153.51    155.03    -28.15     24.00
   19.1716    151.49    152.96    -28.11     24.00
   19.1818    150.71    150.95    -26.88     24.00
   19.1919    149.51    149.02    -26.15     24.00
   19.2021    147.76    147.14    -26.01     24.00
   19.2123    145.94    145.31    -26.01     24.00
   19.2224    145.38    143.57    -24.83     24.00
   19.2326    143.27    141.87    -25.24     24.00
   19.2428    142.60    140.24    -24.28     24.00
   19.2529    141.04    138.69    -24.28     24.00
   19.2631    139.53    137.18    -24.29     24.00
   19.2733    139.05    135.74    -23.33     24.00
   19.2834    139.19    134.38    -21.83     24.00
   19.2936    138.71    133.07    -21.00     24.00
   19.3038    135.74    131.83    -22.72     24.00
   19.3139    136.62    130.65    -20.67     24.00
   19.3241    135.18    129.53    -20.99     24.00
   19.3342    132.85    128.48    -22.27     24.00
   19.3444    134.82    127.48    -19.30     24.00
   19.3546    132.07    126.54    -21.10     24.00
   19.3647    131.79    125.66    -20.51     24.00
   19.3749    131.86    124.84    -19.61     24.00
   19.3851    130.69    124.07    -20.01     24.00
   19.3952    130.52    123.36    -19.47     24.00
   19.4054    129.75    122.70    -19.58     24.00
   19.4156    130.61    122.08    -18.11     24.00
   19.4257    128.71    121.53    -19.46     24.00
   19.4359    129.31    121.02    -18.34     24.00
   19.4461    128.38    120.55    -18.81     24.00
   19.4562    129.04    120.14    -17.73     24.00
   19.4664    127.26    119.76    -19.14     24.00
   19.4765    127.56    119.44    -18.51     24.00
   19.4867    125.99    119.14    -19.79     24.00
   19.4969    126.49    118.89    -19.04     24.00
   19.5070    126.45    118.68    -18.87     24.00
   19.5172    124.42    118.51    -20.72     24.00
   19.5274    126.23    118.36    -18.77     24.00
   19.5375    123.47    118.26    -21.42     24.00
   19.5477    124.60    118.18    -20.22     24.00
   19.5579    125.05    118.14    -19.72     24.00
   19.5680    123.58    118.12    -21.18     24.00
   19.5782    122.36    118.13    -22.41     24.00
   19.5884    123.73    118.17    -21.08     24.00
   19.5985    121.38    118.23    -23.49     24.00
   19.6087    122.09    118.32    -22.86     24.00
   19.6188    122.46    118.43    -22.60     24.00
   19.6290    123.37    118.56    -21.82     24.00
   19.6392    122.07    118.71    -23.27     24.00
   19.6493    123.81    118.88    -21.70     24.00
   19.6595    120.80    119.06    -24.90     24.00
   19.6697    120.99    119.27    -24.91     24.00
   19.6798    122.15    119.49    -23.97     24.00
   19.6900    121.00    119.72    -25.36     24.00
   19.7002    120.96    119.97    -25.65     24.00
   19.7103    122.54    120.23    -24.32     24.00
   19.7205    121.78    120.50    -25.36     24.00
   19.7307    120.67    120.78    -26.75     24.00
   19.7408    120.57    121.08    -27.14     24.00
   19.7510    121.90    121.38    -26.11     24.00
   19.7612    120.85    121.69    -27.48     24.00
   19.7713    120.16    122.01    -28.48     24.00
   19.7815    121.35    122.33    -27.62     24.00
   19.7916    119.70    122.66    -29.60     24.00
   19.8018    121.72    123.00    -27.92     24.00
   19.8120    121.87    123.34    -28.11     24.00
   19.8221    121.07    123.69    -29.25     24.00
   19.8323    122.82    124.04    -27.85     24.00
   19.8425    121.41    124.39    -29.62     24.00
   19.8526    121.57    124.75    -29.81     24.00
   19.8628    121.46    125.11    -30.28     24.00
   19.8730    120.57    125.47    -31.53     24.00
   19.8831    121.40    125.83    -31.06     24.00
   19.8933    122.52    126.19    -30.30     24.00
   19.9035    122.76    126.55    -30.43     24.00
   19.9136    122.65    126.91    -30.90     24.00
   19.9238    121.96    127.27    -31.95     24.00
   19.9339    123.25    127.63    -31.01     24.00
   19.9441    118.96    127.99    -35.66     24.00
   19.9543    122.19    128.35    -32.79     24.00
   19.9644    122.12    128.70    -33.21     24.00
   19.9746    122.18    129.05    -33.51     24.00
   19.9848    124.18    129.40    -31.86     24.00
   19.9949    122.27    129.74    -34.11     24.00
   20.0051    123.04    130.09    -33.68     24.00
   20.0153    122.93    130.42    -34.13     24.00
   20.0254    124.01    130.76    -33.38     24.00
   20.0356    123.45    131.09    -34.27     24.00
   20.0458    122.93    131.41    -35.12     24.00
   20.0559    125.20    131.73    -33.16     24.00
   20.0661    124.24    132.04    -34.44     24.00
   20.0763    126.73    132.35    -32.26     24.00
   20.0864    126.23    132.65    -33.06     24.00
   20.0966    124.60    132.95    -34.99     24.00
   20.1067    128.12    133.24    -31.76     24.00
   20.1169    127.23    133.52    -32.93     24.00
   20.1271    126.72    133.80    -33.72     24.00
   20.1372    128.41    134.07    -32.30     24.00
   20.1474    127.09    134.33    -33.88     24.00
   20.1576    127.93    134.59    -33.30     24.00
   20.1677    128.70    134.84    -32.77     24.00
   20.1779    126.96    135.08    -34.75     24.00
   20.1881    130.98    135.31    -30.97     24.00
   20.1982    130.66    135.53    -31.51     24.00
   20.2084    131.10    135.75    -31.29     24.00
   20.2186    130.38    135.96    -32.21     24.00
   20.2287    131.70    136.15    -31.09     24.00
   20.2389    131.73    136.34    -31.25     24.00
   20.2490    131.48    136.52    -31.68     24.00
   20.2592    134.16    136.70    -29.17     24.00
   20.2694    132.84    136.86    -30.65     24.00
   20.2795    134.42    137.01    -29.23     24.00
   20.2897    134.24    137.15    -29.55     24.00
   20.2999    133.98    137.29    -29.94     24.00
   20.3100    133.79    137.41    -30.26     24.00
   20.3202    137.41    137.52    -26.75     24.00
   20.3304    135.52    137.63    -28.74     24.00
   20.3405    135.40    137.72    -28.96     24.00
   20.3507    137.34    137.81    -27.10     24.00
   20.3609    136.57    137.88    -27.95     24.00
   20.3710    138.17    137.94    -26.41     24.00
   20.3812    138.60    138.00    -26.03     24.00
   20.3914    138.21    138.04    -26.47     24.00
   20.4015    138.37    138.07    -26.34     24.00
   20.4117    139.33    138.09    -25.40     24.00
   20.4218    139.21    138.10    -25.53     24.00
   20.4320    139.71    138.11    -25.03     24.00
   20.4422    141.13    138.10    -23.60     24.00
   20.4523    140.96    138.08    -23.75     24.00
   20.4625    139.87    138.04    -24.81     24.00
   20.4727    143.14    138.00    -21.50     24.00
   20.4828    142.48    137.95    -22.11     24.00
   20.4930    142.20    137.89    -22.32     24.00
   20.5032    143.16    137.81    -21.29     24.00
   20.5133    144.26    137.73    -20.11     24.00
   20.5235    142.22    137.64    -22.05     24.00
   20.5337    144.18    137.53    -19.99     24.00
   20.5438    145.01    137.42    -19.04     24.00
   20.5540    142.86    137.29    -21.07     24.00
   20.5641    144.18    137.16    -19.61     24.00
   20.5743    144.02    137.01    -19.63     24.00
   20.5845    142.49    136.86    -21.00     24.00
   20.5946    143.00    136.69    -20.33     24.00
   20.6048    143.60    136.51    -19.55     24.00
   20.6150    144.56    136.33    -18.40     24.00
   20.6251    143.66    136.13    -19.11     24.00
   20.6353    143.92    135.93    -18.65     24.00
   20.6455    142.40    135.71    -19.95     24.00
   20.6556    143.55    135.49    -18.58     24.00
   20.6658    142.99    135.26    -18.91     24.00
   20.6760    142.78    135.02    -18.87     24.00
   20.6861    141.62    134.77    -19.78     24.00
   20.6963    143.72    134.51    -17.42     24.00
   20.7065    141.55    134.24    -19.33     24.00
   20.7166    140.53    133.97    -20.07     24.00
   20.7268    142.82    133.68    -17.50     24.00
   20.7369    140.45    133.39    -19.58     24.00
   20.7471    139.76    133.09    -19.97     24.00
   20.7573    139.07    132.78    -20.35     24.00
   20.7674    138.63    132.47    -20.48     24.00
   20.7776    135.86    132.15    -22.92     24.00
   20.7878    138.35    131.82    -20.10     24.00
   20.7979    137.80    131.48    -20.32     24.00
   20.8081    137.51    131.14    -20.27     24.00
   20.8183    134.75    130.79    -22.68     24.00
   20.8284    134.15    130.44    -22.93     24.00
   20.8386    134.46    130.08    -22.26     24.00
   20.8488    135.41    129.71    -20.94     24.00
   20.8589    131.44    129.35    -24.54     24.00
   20.8691    131.09    128.97    -24.52     24.00
   20.8792    131.82    128.59    -23.41     24.00
   20.8894    131.70    128.21    -23.15     24.00
   20.8996    131.79    127.82    -22.67     24.00
   20.9097    129.01    127.43    -25.06     24.00
   20.9199    129.43    127.04    -24.24     24.00
   20.9301    127.61    126.64    -25.66     24.00
   20.9402    128.20    126.24    -24.67     24.00
   20.9504    124.01    125.83    -28.46     24.00
   20.9606    127.26    125.43    -24.80     24.00
   20.9707    126.37    125.02    -25.29     24.00
   20.9809    125.65    124.61    -25.60     24.00
   20.9911    121.40    124.20    -29.44     24.00
   21.0012    122.96    123.80    -27.47     24.00
   21.0114    120.79    123.38    -29.23     24.00
   21.0216    122.97    122.97    -26.64     24.00
   21.0317    120.77    122.56    -28.43     24.00
   21.0419    119.94    122.15    -28.85     24.00
   21.0520    120.32    121.75    -28.06     24.00
   21.0622    120.30    121.34    -27.67     24.00
   21.0724    118.91    120.93    -28.66     24.00
   21.0825    119.80    120.53    -27.37     24.00
   21.0927    118.06    120.13    -28.71     24.00
   21.1029    116.76    119.73    -29.61     24.00
   21.1130    117.15    119.34    -28.83     24.00
   21.1232    117.40    118.95    -28.18     24.00
   21.1334    115.30    118.56    -29.90     24.00
   21.1435    115.45    118.18    -29.37     24.00
   21.1537    114.77    117.80    -29.67     24.00
   21.1639    113.90    117.43    -30.17     24.00
   21.1740    116.02    117.07    -27.69     24.00
   21.1842    113.54    116.71    -29.80     24.00
   21.1943    112.84    116.36    -30.15     24.00
   21.2045    113.98    116.01    -28.67     24.00
   21.2147    113.07    115.67    -29.24     24.00
   21.2248    112.56    115.35    -29.42     24.00
   21.2350    113.45    115.02    -28.21     24.00
   21.2452    112.61    114.71    -28.73     24.00
   21.2553    110.70    114.41    -30.34     24.00
   21.2655    112.27    114.11    -28.48     24.00
   21.2757    112.62    113.83    -27.84     24.00
   21.2858    109.77    113.56    -30.42     24.00
   21.2960    111.99    113.29    -27.94     24.00
   21.3062    111.76    113.04    -27.92     24.00
   21.3163    110.60    112.80    -28.84     24.00
   21.3265    110.41    112.57    -28.80     24.00
   21.3366    109.35    112.36    -29.64     24.00
   21.3468    109.43    112.16    -29.36     24.00
   21.3570    108.99    111.97    -29.61     24.00
   21.3671    109.76    111.79    -28.67     24.00
   21.3773    108.65    111.63    -29.62     24.00
   21.3875    111.13    111.48    -26.99     24.00
   21.3976    108.91    111.35    -29.08     24.00
   21.4078    107.60    111.24    -30.27     24.00
   21.4180    108.28    111.13    -29.49     24.00
   21.4281    108.15    111.05    -29.54     24.00
   21.4383    107.96    110.98    -29.66     24.00
   21.4485    110.52    110.93    -27.04     24.00
   21.4586    110.21    110.89    -27.32     24.00
   21.4688    107.95    110.88    -29.56     24.00
   21.4790    108.91    110.88    -28.60     24.00
   21.4891    108.33    110.89    -29.20     24.00
   21.4993    107.08    110.93    -30.49     24.00
   21.5094    110.32    110.99    -27.30     24.00
   21.5196    110.41    111.06    -27.28     24.00
   21.5298    108.16    111.15    -29.63     24.00
   21.5399    109.49    111.26    -28.41     24.00
   21.5501    110.73    111.39    -27.30     24.00
   21.5603    107.70    111.55    -30.48     24.00
   21.5704    110.12    111.71    -28.23     24.00
   21.5806    112.40    111.91    -26.14     24.00
   21.5908    109.90    112.12    -28.85     24.00
   21.6009    111.54    112.35    -27.44     24.00
   21.6111    111.37    112.60    -27.87     24.00
   21.6213    110.30    112.87    -29.21     24.00
   21.6314    112.27    113.16    -27.53     24.00
   21.6416    112.27    113.48    -27.84     24.00
   21.6517    112.04    113.81    -28.40     24.00
   21.6619    112.47    114.16    -28.33     24.00
   21.6721    112.90    114.54    -28.28     24.00
   21.6822    112.28    114.93    -29.29     24.00
   21.6924    114.32    115.35    -27.67     24.00
   21.7026    115.04    115.79    -27.38     24.00
   21.7127    113.00    116.24    -29.88     24.00
   21.7229    114.15    116.72    -29.21     24.00
   21.7331    116.98    117.22    -26.87     24.00
   21.7432    115.61    117.73    -28.76     24.00
   21.7534    116.56    118.27    -28.34     24.00
   21.7636    117.33    118.82    -28.13     24.00
   21.7737    116.95    119.39    -29.08     24.00
   21.7839    118.46    119.99    -28.16     24.00
   21.7941    120.23    120.60    -27.01     24.00
   21.8042    120.02    121.22    -27.84     24.00
   21.8144    121.11    121.87    -27.40     24.00
   21.8245    123.59    122.53    -25.58     24.00
   21.8347    121.53    123.21    -28.32     24.00
   21.8449    122.30    123.91    -28.25     24.00
   21.8550    123.35    124.62    -27.90     24.00
   21.8652    124.59    125.34    -27.39     24.00
   21.8754    124.70    126.09    -28.02     24.00
   21.8855    126.15    126.84    -27.32     24.00
   21.8957    125.55    127.61    -28.69     24.00
   21.9059    127.41    128.39    -27.61     24.00
   21.9160    129.84    129.17    -25.97     24.00
   21.9262    127.51    129.98    -29.11     24.00
   21.9364    129.36    130.79    -28.07     24.00
   21.9465    130.07    131.61    -28.18     24.00
   21.9567    130.30    132.45    -28.78     24.00
   21.9668    131.84    133.28    -28.08     24.00
   21.9770    134.82    134.13    -25.94     24.00
   21.9872    132.26    134.98    -29.36     24.00
   21.9973    135.02    135.84    -27.45     24.00
   22.0075    136.13    136.70    -27.21     24.00
   22.0177    136.43    137.57    -27.78     24.00
   22.0278    136.93    138.43    -28.14     24.00
   22.0380    138.58    139.31    -27.36     24.00
   22.0482    139.24    140.18    -27.58     24.00
   22.0583    140.87    141.04    -26.81     24.00
   22.0685    142.39    141.92    -26.16     24.00
   22.0787    142.40    142.79    -27.02     24.00
   22.0888    144.08    143.64    -26.20     24.00
   22.0990    145.09    144.50    -26.05     24.00
   22.1092    144.40    145.36    -27.60     24.00
   22.1193    147.48    146.20    -25.36     24.00
   22.1295    149.76    147.04    -23.92     24.00
   22.1396    147.98    147.87    -26.53     24.00
   22.1498    150.52    148.69    -24.81     24.00
   22.1600    152.98    149.51    -23.16     24.00
   22.1701    149.85    150.30    -27.09     24.00
   22.1803    153.53    151.09    -24.19     24.00
   22.1905    154.79    151.86    -23.71     24.00
   22.2006    153.85    152.62    -25.40     24.00
   22.2108    155.64    153.36    -24.36     24.00
   22.2210    159.60    154.09    -21.12     24.00
   22.2311    157.85    154.79    -23.57     24.00
   22.2413    158.98    155.48    -23.13     24.00
   22.2515    161.51    156.15    -21.27     24.00
   22.2616    158.88    156.79    -24.55     24.00
   22.2718    161.66    157.42    -22.39     24.00
   22.2819    162.90    158.01    -21.75     24.00
   22.2921    163.37    158.60    -21.86     24.00
   22.3023    162.38    159.15    -23.41     24.00
   22.3124    162.19    159.68    -24.12     24.00
   22.3226    162.66    160.18    -24.16     24.00
   22.3328    167.44    160.66    -19.86     24.00
   22.3429    168.28    161.10    -19.46     24.00
   22.3531    164.44    161.53    -23.72     24.00
   22.3633    167.24    161.92    -21.31     24.00
   22.3734    168.41    162.28    -20.50     24.00
   22.3836    163.16    162.61    -26.09     24.00
   22.3938    166.82    162.91    -22.73     24.00
   22.4039    169.24    163.18    -20.57     24.00
   22.4141    167.38    163.42    -22.67     24.00
   22.4243    169.63    163.62    -20.63     24.00
   22.4344    169.07    163.79    -21.36     24.00
   22.4446    168.51    163.93    -22.06     24.00
   22.4547    170.93    164.04    -19.74     24.00
   22.4649    168.08    164.11    -22.66     24.00
   22.4751    168.20    164.15    -22.58     24.00
   22.4852    168.84    164.15    -21.94     24.00
   22.4954    168.01    164.12    -22.74     24.00
   22.5056    165.53    164.05    -25.16     24.00
   22.5157    168.51    163.95    -22.08     24.00
   22.5259    168.79    163.82    -21.66     24.00
   22.5361    166.62    163.65    -23.66     24.00
   22.5462    166.76    163.44    -23.32     24.00
   22.5564    165.59    163.20    -24.25     24.00
   22.5666    163.56    162.93    -26.01     24.00
   22.5767    163.82    162.63    -25.44     24.00
   22.5869    165.73    162.28    -23.19     24.00
   22.5970    160.85    161.91    -27.70     24.00
   22.6072    161.04    161.50    -27.10     24.00
   22.6174    162.68    161.06    -25.02     24.00
   22.6275    159.29    160.59    -27.94     24.00
   22.6377    159.11    160.09    -27.61     24.00
   22.6479    158.93    159.55    -27.25     24.00
   22.6580    156.82    158.98    -28.80     24.00
   22.6682    157.13    158.38    -27.89     24.00
   22.6784    156.57    157.75    -27.82     24.00
   22.6885    155.18    157.10    -28.56     24.00
   22.6987    156.02    156.41    -27.03     24.00
   22.7089    153.23    155.70    -29.10     24.00
   22.7190    151.24    154.96    -30.36     24.00
   22.7292    152.59    154.19    -28.24     24.00
   22.7394    150.56    153.39    -29.47     24.00
   22.7495    147.03    152.58    -32.19     24.00
   22.7597    147.76    151.74    -30.61     24.00
   22.7698    146.11    150.88    -31.40     24.00
   22.7800    144.66    149.98    -31.96     24.00
   22.7902    145.48    149.07    -30.23     24.00
   22.8003    142.68    148.15    -32.10     24.00
   22.8105    140.52    147.20    -33.31     24.00
   22.8207    142.99    146.22    -29.87     24.00
   22.8308    139.87    145.24    -32.01     24.00
   22.8410    140.13    144.24    -30.74     24.00
   22.8512    139.04    143.22    -30.81     24.00
   22.8613    139.16    142.19    -29.66     24.00
   22.8715    134.49    141.14    -33.28     24.00
   22.8817    135.71    140.07    -31.00     24.00
   22.8918    133.90    139.01    -31.74     24.00
   22.9020    131.76    137.92    -32.80     24.00
   22.9121    131.41    136.83    -32.06     24.00
   22.9223    131.75    135.73    -30.61     24.00
   22.9325    128.23    134.61    -33.02     24.00
   22.9426    131.45    133.50    -28.69     24.00
   22.9528    127.76    132.37    -31.25     24.00
   22.9630    125.74    131.24    -32.14     24.00
   22.9731    126.80    130.11    -29.95     24.00
   22.9833    125.03    128.97    -30.58     24.00
   22.9935    122.09    127.83    -32.38     24.00
   23.0036    124.24    126.70    -29.09     24.00
   23.0138    122.34    125.55    -29.85     24.00
   23.0240    119.87    124.41    -31.17     24.00
   23.0341    119.06    123.28    -30.85     24.00
   23.0443    118.62    122.13    -30.15     24.00
   23.0545    117.63    120.99    -30.00     24.00
   23.0646    116.88    119.87    -29.63     24.00
   23.0748    115.79    118.74    -29.59     24.00
   23.0849    117.12    117.63    -27.14     24.00
   23.0951    113.95    116.51    -29.19     24.00
   23.1053    112.30    115.39    -29.73     24.00
   23.1154    110.73    114.30    -30.20     24.00
   23.1256    111.71    113.20    -28.13     24.00
   23.1358    110.68    112.11    -28.07     24.00
   23.1459    110.24    111.04    -27.44     24.00
   23.1561    108.26    109.97    -28.35     24.00
   23.1663    107.87    108.91    -27.68     24.00
   23.1764    105.55    107.87    -28.96     24.00
   23.1866    106.71    106.83    -26.76     24.00
   23.1968    105.76    105.81    -26.68     24.00
   23.2069    105.37    104.80    -26.07     24.00
   23.2171    104.41    103.80    -26.03     24.00
   23.2272    105.12    102.82    -24.34     24.00
   23.2374    101.86    101.85    -26.62     24.00
   23.2476    103.79    100.88    -23.73     24.00
   23.2577    100.96     99.95    -25.62     24.00
   23.2679    101.22     99.01    -24.43     24.00
   23.2781     98.98     98.10    -25.75     24.00
   23.2882     98.71     97.20    -25.13     24.00
   23.2984     98.68     96.31    -24.27     24.00
   23.3086     97.63     95.44    -24.45     24.00
   23.3187     97.20     94.59    -24.03     24.00
   23.3289     95.64     93.75    -24.75     24.00
   23.3391     95.56     92.92    -24.00     24.00
   23.3492     93.85     92.12    -24.91     24.00
   23.3594     93.49     91.33    -24.47     24.00
   23.3695     93.98     90.56    -23.21     24.00
   23.3797     93.66     89.79    -22.77     24.00
   23.3899     92.79     89.05    -22.89     24.00
   23.4000     91.48     88.32    -23.48     24.00
   23.4102     90.52     87.61    -23.72     24.00
   23.4204     90.82     86.91    -22.72     24.00
   23.4305     91.38     86.23    -21.49     24.00
   23.4407     88.56     85.56    -23.64     24.00
   23.4509     89.26     84.91    -22.29     24.00
   23.4610     88.51     84.28    -22.41     24.00
   23.4712     86.33     83.66    -23.97     24.00
   23.4814     87.33     83.06    -22.36     24.00
   23.4915     86.02     82.47    -23.09     24.00
   23.5017     85.98     81.89    -22.55     24.00
   23.5119     85.75     81.33    -22.22     24.00
   23.5220     83.95     80.79    -23.48     24.00
   23.5322     83.88     80.26    -23.02     24.00
   23.5423     81.54     79.75    -24.84     24.00
   23.5525     83.86     79.24    -22.02     24.00
   23.5627     82.08     78.75    -23.31     24.00
   23.5728     82.60     78.28    -22.32     24.00
   23.5830     80.45     77.82    -24.00     24.00
   23.5932     81.02     77.36    -22.98     24.00
   23.6033     80.76     76.93    -22.81     24.00
   23.6135     80.90     76.51    -22.24     24.00
   23.6237     80.95     76.09    -21.78     24.00
   23.6338     78.80     75.69    -23.53     24.00
   23.6440     78.74     75.30    -23.20     24.00
   23.6542     79.07     74.93    -22.49     24.00
   23.6643     80.02     74.56    -21.18     24.00
   23.6745     79.37     74.21    -21.47     24.00
   23.6846     77.82     73.86    -22.68     24.00
   23.6948     78.40     73.53    -21.76     24.00
   23.7050     77.15     73.20    -22.69     24.00
   23.7151     77.37     72.89    -22.16     24.00
   23.7253     76.20     72.58    -23.02     24.00
   23.7355     76.11     72.29    -22.81     24.00
   23.7456     75.89     72.00    -22.75     24.00
   23.7558     74.93     71.72    -23.43     24.00
   23.7660     74.24     71.45    -23.85     24.00
   23.7761     73.78     71.19    -24.05     24.00
   23.7863     73.90     70.94    -23.67     24.00
   23.7965     74.84     70.69    -22.49     24.00
   23.8066     73.98     70.45    -23.11     24.00
   23.8168     72.86     70.22    -24.00     24.00
   23.8270     73.90     70.00    -22.73     24.00
   23.8371     71.52     69.78    -24.90     24.00
   23.8473     71.25     69.57    -24.95     24.00
   23.8574     72.88     69.36    -23.12     24.00
   23.8676     72.20     69.16    -23.60     24.00
   23.8778     70.40     68.97    -25.21     24.00
   23.8879     71.27     68.78    -24.15     24.00
   23.8981     71.18     68.60    -24.06     24.00
   23.9083     70.66     68.42    -24.40     24.00
   23.9184     69.57     68.25    -25.32     24.00
   23.9286     70.07     68.08    -24.65     24.00
   23.9388     70.79     67.92    -23.77     24.00
   23.9489     68.62     67.76    -25.78     24.00
   23.9591     70.06     67.61    -24.18     24.00
   23.9693     69.20     67.46    -24.89     24.00
   23.9794     68.30     67.31    -25.65     24.00
   23.9896     67.21     67.17    -26.60     24.00
   23.9997     68.02     67.03    -25.65     24.00
   24.0099     67.86     66.89    -25.67     24.00
   24.0201     68.06     66.76    -25.34     24.00
   24.0302     66.64     66.63    -26.63     24.00
   24.0404     67.25     66.51    -25.89     24.00
   24.0506     67.77     66.38    -25.25     24.00
   24.0607     67.15     66.26    -25.75     24.00
   24.0709     66.68     66.14    -26.10     24.00
   24.0811     66.09     66.03    -26.57     24.00
   24.0912     66.88     65.91    -25.67     24.00
   24.1014     65.94     65.80    -26.50     24.00
   24.1116     66.00     65.69    -26.33     24.00
   24.1217     66.64     65.58    -25.58     24.00
   24.1319     65.82     65.48    -26.29     24.00
   24.1421     64.23     65.37    -27.78     24.00
   24.1522     64.64     65.27    -27.27     24.00
   24.1624     64.57     65.17    -27.24     24.00
   24.1725     64.56     65.07    -27.15     24.00
   24.1827     64.85     64.97    -26.76     24.00
   24.1929     66.12     64.88    -25.39     24.00
   24.2030     64.29     64.78    -27.13     24.00
   24.2132     64.09     64.69    -27.24     24.00
   24.2234     64.09     64.60    -27.14     24.00
   24.2335     64.07     64.51    -27.07     24.00
   24.2437     63.46     64.42    -27.59     24.00
   24.2539     62.14     64.33    -28.82     24.00
   24.2640     63.00     64.24    -27.87     24.00
   24.2742     62.82     64.15    -27.97     24.00
   24.2844     61.27     64.06    -29.43     24.00
   24.2945     63.02     63.98    -27.59     24.00
   24.3047     61.44     63.89    -29.09     24.00
   24.3148     63.29     63.81    -27.15     24.00
   24.3250     62.57     63.72    -27.79     24.00
   24.3352     62.15     63.64    -28.13     24.00
   24.3453     61.58     63.56    -28.61     24.00
   24.3555     61.66     63.47    -28.45     24.00
   24.3657     61.65     63.39    -28.38     24.00
   24.3758     60.88     63.31    -29.07     24.00
   24.3860     61.39     63.23    -28.48     24.00
   24.3962     61.59     63.15    -28.19     24.00
   24.4063     60.83     63.07    -28.88     24.00
   24.4165     62.15     62.99    -27.47     24.00
   24.4267     60.75     62.91    -28.80     24.00
   24.4368     60.25     62.83    -29.22     24.00
   24.4470     60.59     62.75    -28.80     24.00
   24.4572     60.62     62.67    -28.69     24.00
   24.4673     60.85     62.59    -28.38     24.00
   24.4775     60.34     62.52    -28.81     24.00
   24.4876     61.59     62.44    -27.48     24.00
   24.4978     60.96     62.36    -28.04     24.00
   24.5080     59.48     62.28    -29.44     24.00
   24.5181     60.68     62.21    -28.16     24.00
   24.5283     59.57     62.13    -29.19     24.00
   24.5385     58.50     62.05    -30.19     24.00
   24.5486     58.92     61.97    -29.69     24.00
   24.5588     58.76     61.90    -29.77     24.00
   24.5690     59.47     61.82    -28.99     24.00
   24.5791     59.07     61.74    -29.31     24.00
   24.5893     59.05     61.67    -29.25     24.00
   24.5995     58.14     61.59    -30.09     24.00
   24.6096     58.59     61.51    -29.56     24.00
   24.6198     58.60     61.44    -29.47     24.00
   24.6299     58.62     61.36    -29.38     24.00
   24.6401     57.86     61.28    -30.06     24.00
   24.6503     58.85     61.21    -28.99     24.00
   24.6604     57.87     61.13    -29.90     24.00
   24.6706     58.15     61.06    -29.54     24.00
   24.6808     57.76     60.98    -29.86     24.00
   24.6909     57.91     60.90    -29.63     24.00
   24.7011     57.90     60.83    -29.56     24.00
   24.7113     58.44     60.75    -28.95     24.00
   24.7214     58.20     60.68    -29.11     24.00
   24.7316     57.65     60.60    -29.59     24.00
   24.7418     56.24     60.53    -30.92     24.00
   24.7519     58.35     60.45    -28.74     24.00
   24.7621     55.83     60.37    -31.18     24.00
   24.7723     56.54     60.30    -30.39     24.00
   24.7824     58.21     60.22    -28.65     24.00
   24.7926     57.48     60.15    -29.30     24.00
   24.8027     57.10     60.07    -29.61     24.00
   24.8129     57.27     60.00    -29.36     24.00
   24.8231     56.58     59.92    -29.98     24.00
   24.8332     56.46     59.84    -30.02     24.00
   24.8434     57.50     59.77    -28.90     24.00
   24.8536     56.63     59.69    -29.70     24.00
   24.8637     57.00     59.62    -29.25     24.00
   24.8739     56.66     59.54    -29.52     24.00
   24.8841     56.65     59.47    -29.45     24.00
   24.8942     55.48     59.39    -30.55     24.00
   24.9044     56.15     59.32    -29.80     24.00
   24.9146     56.60     59.24    -29.28     24.00
   24.9247     56.13     59.16    -29.67     24.00
   24.9349     54.78     59.09    -30.95     24.00
   24.9450     56.39     59.01    -29.26     24.00
   24.9552     56.85     58.94    -28.72     24.00
   24.9654     55.36     58.86    -30.14     24.00
   24.9755     55.88     58.79    -29.54     24.00
   24.9857     54.45     58.71    -30.90     24.00
   24.9959     55.81     58.64    -29.46     24.00
   25.0060     55.17     58.56    -30.03     24.00
   25.0162     54.63     58.49    -30.49     24.00
   25.0264     55.93     58.41    -29.12     24.00
   25.0365     55.25     58.34    -29.72     24.00
   25.0467     55.35     58.26    -29.55     24.00
   25.0569     55.39     58.18    -29.43     24.00
   25.0670     55.34     58.11    -29.41     24.00
   25.0772     55.66     58.03    -29.01     24.00
   25.0874     54.60     57.96    -29.99     24.00
   25.0975     54.45     57.88    -30.07     24.00
   25.1077     55.40     57.81    -29.04     24.00
   25.1178     56.05     57.73    -28.32     24.00
   25.1280     55.37     57.66    -28.92     24.00
   25.1382     54.29     57.58    -29.93     24.00
   25.1483     54.98     57.51    -29.16     24.00
   25.1585     54.45     57.43    -29.62     24.00
   25.1687     53.39     57.36    -30.60     24.00
   25.1788     53.87     57.28    -30.05     24.00
   25.1890     55.66     57.21    -28.18     24.00
   25.1992     53.77     57.13    -30.00     24.00
   25.2093     54.68     57.06    -29.01     24.00
   25.2195     54.74     56.98    -28.88     24.00
   25.2297     55.67     56.91    -27.87     24.00
   25.2398     54.46     56.83    -29.01     24.00
   25.2500     54.63     56.76    -28.76     24.00
   25.2601     53.98     56.68    -29.34     24.00
   25.2703     54.82     56.61    -28.42     24.00
   25.2805     54.34     56.53    -28.83     24.00
   25.2906     54.32     56.46    -28.77     24.00
   25.3008     54.31     56.38    -28.71     24.00
   25.3110     53.79     56.31    -29.15     24.00
   25.3211     54.02     56.23    -28.85     24.00
   25.3313     54.30     56.16    -28.50     24.00
   25.3415     54.65     56.08    -28.07     24.00
   25.3516     54.98     56.01    -27.67     24.00
   25.3618     53.94     55.94    -28.63     24.00
   25.3720     54.50     55.86    -28.00     24.00
   25.3821     54.00     55.79    -28.42     24.00
   25.3923     54.65     55.71    -27.70     24.00
   25.4024     53.59     55.64    -28.68     24.00
   25.4126     53.76     55.56    -28.44     24.00
   25.4228     53.37     55.49    -28.75     24.00
   25.4329     53.38     55.41    -28.67     24.00
   25.4431     54.23     55.34    -27.75     24.00
   25.4533     54.23     55.27    -27.67     24.00
   25.4634     53.10     55.19    -28.73     24.00
   25.4736     54.02     55.12    -27.73     24.00
   25.4838     53.62     55.04    -28.06     24.00
   25.4939     53.24     54.97    -28.37     24.00
   25.5041     53.09     54.90    -28.44     24.00
   25.5143     53.12     54.82    -28.34     24.00
   25.5244     54.14     54.75    -27.24     24.00
   25.5346     52.91     54.67    -28.40     24.00
   25.5448     52.88     54.60    -28.36     24.00
   25.5549     52.26     54.53    -28.90     24.00
   25.5651     53.34     54.45    -27.75     24.00
   25.5752     52.45     54.38    -28.57     24.00
   25.5854     53.09     54.31    -27.85     24.00
   25.5956     53.41     54.23    -27.46     24.00
   25.6057     53.52     54.16    -27.27     24.00
   25.6159     52.85     54.09    -27.87     24.00
   25.6261     51.91     54.01    -28.74     24.00
   25.6362     53.41     53.94    -27.16     24.00
   25.6464     52.43     53.87    -28.07     24.00
   25.6566     53.69     53.79    -26.74     24.00
   25.6667     54.19     53.72    -26.17     24.00
   25.6769     52.57     53.65    -27.71     24.00
   25.6871     52.46     53.57    -27.75     24.00
   25.6972     51.81     53.50    -28.33     24.00
   25.7074     51.33     53.43    -28.73     24.00
   25.7175     52.18     53.35    -27.81     24.00
   25.7277     52.63     53.28    -27.29     24.00
   25.7379     51.30     53.21    -28.55     24.00
   25.7480     52.65     53.14    -27.12     24.00
   25.7582     52.73     53.06    -26.97     24.00
   25.7684     51.60     52.99    -28.03     24.00
   25.7785     52.21     52.92    -27.35     24.00
   25.7887     52.60     52.85    -26.88     24.00
   25.7989     51.98     52.77    -27.43     24.00
   25.8090     53.07     52.70    -26.27     24.00
   25.8192     51.96     52.63    -27.31     24.00
   25.8294     52.16     52.56    -27.03     24.00
   25.8395     51.21     52.49    -27.91     24.00
   25.8497     51.89     52.41    -27.16     24.00
   25.8599     51.75     52.34    -27.23     24.00
   25.8700     53.09     52.27    -25.82     24.00
   25.8802     51.72     52.20    -27.12     24.00
   25.8903     51.37     52.13    -27.39     24.00
   25.9005     51.76     52.06    -26.93     24.00
   25.9107     51.54     51.99    -27.08     24.00
   25.9208     50.71     51.91    -27.84     24.00
   25.9310     50.04     51.84    -28.44     24.00
   25.9412     51.05     51.77    -27.36     24.00
   25.9513     50.87     51.70    -27.47     24.00
   25.9615     50.44     51.63    -27.83     24.00
   25.9717     50.88     51.56    -27.31     24.00
   25.9818     50.70     51.49    -27.42     24.00
   25.9920     50.56     51.42    -27.49     24.00
   26.0022     50.98     51.35    -27.00     24.00
   26.0123     50.16     51.28    -27.75     24.00
   26.0225     50.41     51.21    -27.43     24.00
   26.0326     50.52     51.14    -27.25     24.00
   26.0428     50.51     51.07    -27.19     24.00
   26.0530     50.74     51.00    -26.89     24.00
   26.0631     50.31     50.93    -27.25     24.00
   26.0733     51.19     50.86    -26.30     24.00
   26.0835     49.51     50.79    -27.91     24.00
   26.0936     49.95     50.72    -27.40     24.00
   26.1038     50.27     50.65    -27.01     24.00
   26.1140     49.05     50.58    -28.16     24.00
   26.1241     49.54     50.51    -27.61     24.00
   26.1343     49.92     50.44    -27.16     24.00
   26.1445     49.97     50.37    -27.04     24.00
   26.1546     49.85     50.30    -27.09     24.00
   26.1648     49.55     50.23    -27.32     24.00
   26.1750     49.40     50.16    -27.40     24.00
   26.1851     49.37     50.10    -27.36     24.00
   26.1953     49.60     50.03    -27.06     24.00
   26.2054     49.39     49.96    -27.21     24.00
   26.2156     49.29     49.89    -27.24     24.00
   26.2258     49.44     49.82    -27.02     24.00
   26.2359     49.21     49.76    -27.18     24.00
   26.2461     49.73     49.69    -26.59     24.00
   26.2563     49.52     49.62    -26.74     24.00
   26.2664     48.90     49.55    -27.29     24.00
   26.2766     49.10     49.49    -27.02     24.00
   26.2868     49.99     49.42    -26.06     24.00
   26.2969     48.42     49.35    -27.57     24.00
   26.3071     50.15     49.28    -25.77     24.00
   26.3173     49.13     49.22    -26.72     24.00
   26.3274     48.87     49.15    -26.92     24.00
   26.3376     48.41     49.08    -27.31     24.00
   26.3477     48.86     49.02    -26.79     24.00
   26.3579     49.16     48.95    -26.43     24.00
   26.3681     48.94     48.89    -26.58     24.00
   26.3782     48.42     48.82    -27.04     24.00
   26.3884     49.28     48.75    -26.11     24.00
   26.3986     48.34     48.69    -26.98     24.00
   26.4087     48.52     48.62    -26.74     24.00
   26.4189     49.19     48.56    -26.00     24.00
   26.4291     47.79     48.49    -27.34     24.00
   26.4392     47.70     48.43    -27.36     24.00
   26.4494     48.21     48.36    -26.79     24.00
   26.4596     48.58     48.30    -26.36     24.00
   26.4697     47.18     48.24    -27.69     24.00
   26.4799     48.55     48.17    -26.26     24.00
   26.4901     46.61     48.11    -28.13     24.00
   26.5002     47.91     48.04    -26.77     24.00
   26.5104     47.54     47.98    -27.08     24.00
   26.5205     48.27     47.92    -26.28     24.00
   26.5307     47.79     47.85    -26.70     24.00
   26.5409     47.24     47.79    -27.19     24.00
   26.5510     48.00     47.73    -26.37     24.00
   26.5612     48.02     47.67    -26.28     24.00
   26.5714     48.43     47.61    -25.81     24.00
   26.5815     47.97     47.54    -26.21     24.00
   26.5917     47.93     47.48    -26.19     24.00
   26.6019     47.32     47.42    -26.74     24.00
   26.6120     47.46     47.36    -26.54     24.00
   26.6222     48.24     47.30    -25.70     24.00
   26.6324     47.38     47.24    -26.49     24.00
   26.6425     47.92     47.18    -25.90     24.00
   26.6527     47.38     47.12    -26.38     24.00
   26.6628     47.96     47.06    -25.74     24.00
   26.6730     46.16     47.00    -27.48     24.00
   26.6832     45.36     46.94    -28.22     24.00
   26.6933     47.21     46.88    -26.31     24.00
   26.7035     46.52     46.83    -26.94     24.00
   26.7137     47.87     46.77    -25.53     24.00
   26.7238     47.71     46.71    -25.64     24.00
   26.7340     48.09     46.65    -25.20     24.00
   26.7442     47.01     46.60    -26.22     24.00
   26.7543     46.76     46.54    -26.42     24.00
   26.7645     46.82     46.49    -26.30     24.00
   26.7747     47.15     46.43    -25.92     24.00
   26.7848     46.90     46.38    -26.11     24.00
   26.7950     45.86     46.32    -27.10     24.00
   26.8052     47.26     46.27    -25.64     24.00
   26.8153     46.32     46.21    -26.53     24.00
   26.8255     47.57     46.16    -25.23     24.00
   26.8356     46.88     46.11    -25.87     24.00
   26.8458     46.97     46.06    -25.72     24.00
   26.8560     46.29     46.01    -26.35     24.00
   26.8661     46.65     45.96    -25.94     24.00
   26.8763     47.62     45.91    -24.92     24.00
   26.8865     46.38     45.86    -26.12     24.00
   26.8966     46.49     45.81    -25.96     24.00
   26.9068     46.05     45.76    -26.35     24.00
   26.9170     45.96     45.72    -26.39     24.00
   26.9271     45.71     45.67    -26.60     24.00
   26.9373     46.66     45.63    -25.60     24.00
   26.9475     46.60     45.58    -25.62     24.00
   26.9576     45.99     45.54    -26.19     24.00
   26.9678     46.70     45.50    -25.44     24.00
   26.9779     47.23     45.46    -24.86     24.00
   26.9881     45.93     45.42    -26.13     24.00
   26.9983     46.96     45.38    -25.06     24.00
   27.0084     46.05     45.34    -25.93     24.00
   27.0186     46.04     45.31    -25.90     24.00
   27.0288     46.53     45.27    -25.38     24.00
   27.0389     44.55     45.24    -27.32     24.00
   27.0491     47.37     45.21    -24.47     24.00
   27.0593     45.91     45.18    -25.90     24.00
   27.0694     45.36     45.15    -26.42     24.00
   27.0796     44.59     45.12    -27.16     24.00
   27.0898     45.41     45.09    -26.32     24.00
   27.0999     45.97     45.07    -25.73     24.00
   27.1101     45.46     45.05    -26.22     24.00
   27.1202     46.05     45.02    -25.61     24.00
   27.1304     46.50     45.01    -25.14     24.00
   27.1406     46.40     44.99    -25.22     24.00
   27.1507     46.89     44.97    -24.72     24.00
   27.1609     46.34     44.96    -25.26     24.00
   27.1711     46.55     44.95    -25.04     24.00
   27.1812     46.34     44.94    -25.24     24.00
   27.1914     46.46     44.94    -25.11     24.00
   27.2016     46.05     44.93    -25.52     24.00
   27.2117     46.91     44.93    -24.66     24.00
   27.2219     46.12     44.93    -25.45     24.00
   27.2321     46.82     44.94    -24.75     24.00
   27.2422     46.79     44.95    -24.79     24.00
   27.2524     46.47     44.96    -25.12     24.00
   27.2626     46.25     44.97    -25.36     24.00
   27.2727     46.55     44.99    -25.07     24.00
   27.2829     46.41     45.01    -25.23     24.00
   27.2930     46.71     45.03    -24.96     24.00
   27.3032     46.16     45.06    -25.53     24.00
   27.3134     46.22     45.09    -25.50     24.00
   27.3235     46.87     45.12    -24.89     24.00
   27.3337     46.44     45.16    -25.35     24.00
   27.3439     46.75     45.20    -25.09     24.00
   27.3540     46.75     45.25    -25.13     24.00
   27.3642     46.34     45.29    -25.59     24.00
   27.3744     46.77     45.35    -25.22     24.00
   27.3845     47.05     45.41    -24.99     24.00
   27.3947     46.51     45.47    -25.60     24.00
   27.4049     46.53     45.54    -25.64     24.00
   27.4150     46.07     45.61    -26.18     24.00
   27.4252     46.46     45.69    -25.86     24.00
   27.4353     47.51     45.77    -24.89     24.00
   27.4455     46.94     45.85    -25.55     24.00
   27.4557     46.60     45.95    -25.98     24.00
   27.4658     46.68     46.04    -26.00     24.00
   27.4760     46.18     46.15    -26.60     24.00
   27.4862     47.52     46.25    -25.37     24.00
   27.4963     46.89     46.37    -26.11     24.00
   27.5065     47.57     46.49    -25.55     24.00
   27.5167     47.17     46.61    -26.08     24.00
   27.5268     47.16     46.74    -26.22     24.00
   27.5370     47.97     46.88    -25.54     24.00
   27.5472     47.88     47.02    -25.78     24.00
   27.5573     46.63     47.17    -27.17     24.00
   27.5675     47.23     47.32    -26.73     24.00
   27.5777     47.64     47.49    -26.48     24.00
   27.5878     47.55     47.65    -26.74     24.00
   27.5980     47.76     47.83    -26.70     24.00
   27.6081     48.68     48.01    -25.96     24.00
   27.6183     48.29     48.19    -26.54     24.00
   27.6285     48.60     48.39    -26.42     24.00
   27.6386     48.13     48.58    -27.09     24.00
   27.6488     48.01     48.79    -27.42     24.00
   27.6590     49.01     49.00    -26.63     24.00
   27.6691     50.03     49.22    -25.83     24.00
   27.6793     48.90     49.45    -27.18     24.00
   27.6895     48.32     49.68    -28.00     24.00
   27.6996     48.63     49.92    -27.92     24.00
   27.7098     49.21     50.16    -27.59     24.00
   27.7200     49.93     50.42    -27.12     24.00
   27.7301     49.72     50.67    -27.59     24.00
   27.7403     49.53     50.94    -28.04     24.00
   27.7504     48.84     51.21    -29.00     24.00
   27.7606     50.95     51.48    -27.17     24.00
   27.7708     49.94     51.77    -28.46     24.00
   27.7809     50.22     52.05    -28.47     24.00
   27.7911     51.01     52.35    -27.98     24.00
   27.8013     51.18     52.65    -28.11     24.00
   27.8114     50.38     52.95    -29.21     24.00
   27.8216     51.28     53.27    -28.62     24.00
   27.8318     51.30     53.59    -28.92     24.00
   27.8419     52.73     53.90    -27.81     24.00
   27.8521     51.94     54.23    -28.93     24.00
   27.8623     50.69     54.57    -30.51     24.00
   27.8724     52.62     54.90    -28.92     24.00
   27.8826     51.91     55.24    -29.97     24.00
   27.8928     53.30     55.59    -28.92     24.00
   27.9029     53.93     55.93    -28.64     24.00
   27.9131     53.23     56.29    -29.69     24.00
   27.9232     53.03     56.64    -30.24     24.00
   27.9334     54.41     57.00    -29.22     24.00
   27.9436     53.94     57.36    -30.06     24.00
   27.9537     54.97     57.72    -29.39     24.00
   27.9639     53.80     58.09    -30.92     24.00
   27.9741     55.60     58.46    -29.49     24.00
   27.9842     55.63     58.82    -29.83     24.00
   27.9944     55.63     59.19    -30.20     24.00
   28.0046     55.83     59.56    -30.37     24.00
   28.0147     56.45     59.93    -30.12     24.00
   28.0249     56.34     60.31    -30.60     24.00
   28.0351     56.89     60.68    -30.42     24.00
   28.0452     56.77     61.05    -30.91     24.00
   28.0554     57.66     61.42    -30.39     24.00
   28.0655     58.21     61.78    -30.21     24.00
   28.0757     58.87     62.15    -29.91     24.00
   28.0859     59.34     62.51    -29.81     24.00
   28.0960     59.40     62.87    -30.11     24.00
   28.1062     59.29     63.23    -30.58     24.00
   28.1164     60.88     63.59    -29.34     24.00
   28.1265     60.32     63.93    -30.25     24.00
   28.1367     61.66     64.28    -29.26     24.00
   28.1469     61.43     64.62    -29.83     24.00
   28.1570     62.41     64.96    -29.18     24.00
   28.1672     61.37     65.29    -30.56     24.00
   28.1774     63.55     65.62    -28.70     24.00
   28.1875     64.15     65.93    -28.42     24.00
   28.1977     63.45     66.24    -29.43     24.00
   28.2079     65.10     66.55    -28.09     24.00
   28.2180     65.49     66.85    -27.99     24.00
   28.2282     65.08     67.14    -28.69     24.00
   28.2383     65.73     67.42    -28.32     24.00
   28.2485     65.18     67.69    -29.14     24.00
   28.2587     67.36     67.95    -27.23     24.00
   28.2688     65.99     68.21    -28.85     24.00
   28.2790     67.76     68.45    -27.33     24.00
   28.2892     68.07     68.69    -27.25     24.00
   28.2993     68.77     68.91    -26.78     24.00
   28.3095     67.94     69.12    -27.82     24.00
   28.3197     68.24     69.33    -27.72     24.00
   28.3298     69.43     69.52    -26.72     24.00
   28.3400     70.07     69.70    -26.26     24.00
   28.3502     69.79     69.87    -26.71     24.00
   28.3603     70.02     70.02    -26.64     24.00
   28.3705     70.55     70.17    -26.25     24.00
   28.3806     71.34     70.30    -25.59     24.00
   28.3908     72.05     70.42    -25.01     24.00
   28.4010     71.15     70.53    -26.01     24.00
   28.4111     70.50     70.62    -26.76     24.00
   28.4213     71.68     70.70    -25.66     24.00
   28.4315     71.13     70.77    -26.28     24.00
   28.4416     73.64     70.82    -23.82     24.00
   28.4518     71.08     70.87    -26.42     24.00
   28.4620     72.08     70.89    -25.45     24.00
   28.4721     71.90     70.91    -25.65     24.00
   28.4823     72.37     70.91    -25.18     24.00
   28.4925     72.14     70.90    -25.40     24.00
   28.5026     72.34     70.88    -25.17     24.00
   28.5128     71.66     70.84    -25.81     24.00
   28.5230     72.87     70.79    -24.55     24.00
   28.5331     73.18     70.72    -24.18     24.00
   28.5433     72.87     70.64    -24.41     24.00
   28.5534     72.36     70.55    -24.83     24.00
   28.5636     71.27     70.45    -25.82     24.00
   28.5738     73.24     70.34    -23.73     24.00
   28.5839     71.91     70.21    -24.93     24.00
   28.5941     72.11     70.07    -24.59     24.00
   28.6043     72.10     69.91    -24.45     24.00
   28.6144     71.40     69.75    -24.99     24.00
   28.6246     71.56     69.57    -24.65     24.00
   28.6348     71.91     69.39    -24.11     24.00
   28.6449     71.25     69.19    -24.57     24.00
   28.6551     71.09     68.98    -24.52     24.00
   28.6653     70.15     68.76    -25.24     24.00
   28.6754     70.17     68.53    -24.99     24.00
   28.6856     70.47     68.29    -24.45     24.00
   28.6957     70.45     68.04    -24.22     24.00
   28.7059     69.80     67.78    -24.61     24.00
   28.7161     69.57     67.51    -24.58     24.00
   28.7262     70.52     67.23    -23.35     24.00
   28.7364     68.65     66.95    -24.94     24.00
   28.7466     69.05     66.66    -24.24     24.00
   28.7567     67.93     66.36    -25.06     24.00
   28.7669     68.73     66.05    -23.95     24.00
   28.7771     67.14     65.73    -25.23     24.00
   28.7872     66.88     65.41    -25.17     24.00
   28.7974     67.16     65.09    -24.56     24.00
   28.8076     66.53     64.75    -24.86     24.00
   28.8177     65.22     64.42    -25.83     24.00
   28.8279     65.54     64.08    -25.17     24.00
   28.8381     66.28     63.73    -24.08     24.00
   28.8482     65.24     63.38    -24.78     24.00
   28.8584     64.18     63.03    -25.48     24.00
   28.8685     63.25     62.67    -26.06     24.00
   28.8787     63.26     62.31    -25.69     24.00
   28.8889     63.79     61.95    -24.79     24.00
   28.8990     63.29     61.58    -24.93     24.00
   28.9092     63.06     61.22    -24.79     24.00
   28.9194     61.65     60.85    -25.83     24.00
   28.9295     60.76     60.48    -26.36     24.00
   28.9397     61.74     60.11    -25.01     24.00
   28.9499     60.62     59.74    -25.76     24.00
   28.9600     61.27     59.38    -24.74     24.00
   28.9702     60.81     59.01    -24.83     24.00
   28.9804     59.77     58.64    -25.50     24.00
   28.9905     60.21     58.27    -24.70     24.00
   29.0007     59.31     57.91    -25.23     24.00
   29.0108     58.78     57.55    -25.40     24.00
   29.0210     58.32     57.18    -25.50     24.00
   29.0312     58.48     56.82    -24.98     24.00
   29.0413     57.91     56.47    -25.20     24.00
   29.0515     57.40     56.12    -25.35     24.00
   29.0617     56.75     55.76    -25.65     24.00
   29.0718     56.19     55.42    -25.87     24.00
   29.0820     55.65     55.07    -26.06     24.00
   29.0922     55.87     54.73    -25.50     24.00
   29.1023     56.34     54.40    -24.70     24.00
   29.1125     55.07     54.07    -25.63     24.00
   29.1227     56.51     53.74    -23.86     24.00
   29.1328     54.82     53.42    -25.23     24.00
   29.1430     54.31     53.10    -25.42     24.00
   29.1531     54.52     52.79    -24.90     24.00
   29.1633     52.96     52.48    -26.15     24.00
   29.1735     53.23     52.17    -25.58     24.00
   29.1836     54.20     51.88    -24.31     24.00
   29.1938     53.59     51.58    -24.63     24.00
   29.2040     51.92     51.29    -26.01     24.00
   29.2141     51.84     51.01    -25.81     24.00
   29.2243     51.39     50.73    -25.98     24.00
   29.2345     51.04     50.46    -26.06     24.00
   29.2446     50.91     50.20    -25.92     24.00
   29.2548     50.01     49.93    -26.56     24.00
   29.2650     51.18     49.68    -25.13     24.00
   29.2751     50.26     49.43    -25.81     24.00
   29.2853     50.70     49.19    -25.12     24.00
   29.2955     49.50     48.95    -26.08     24.00
   29.3056     49.15     48.72    -26.20     24.00
   29.3158     48.77     48.49    -26.35     24.00
   29.3259     48.46     48.27    -26.44     24.00
   29.3361     49.44     48.05    -25.25     24.00
   29.3463     48.74     47.84    -25.73     24.00
   29.3564     48.96     47.63    -25.31     24.00
   29.3666     48.27     47.43    -25.80     24.00
   29.3768     48.01     47.24    -25.86     24.00
   29.3869     48.04     47.05    -25.65     24.00
   29.3971     48.75     46.87    -24.75     24.00
   29.4073     47.46     46.69    -25.86     24.00
   29.4174     48.10     46.51    -25.05     24.00
   29.4276     47.76     46.34    -25.22     24.00
   29.4378     47.32     46.18    -25.49     24.00
   29.4479     47.23     46.02    -25.42     24.00
   29.4581     46.43     45.86    -26.07     24.00
   29.4682     45.96     45.71    -26.39     24.00
   29.4784     46.46     45.56    -25.74     24.00
   29.4886     46.07     45.42    -25.99     24.00
   29.4987     45.51     45.29    -26.41     24.00
   29.5089     45.28     45.15    -26.51     24.00
   29.5191     45.92     45.02    -25.74     24.00
   29.5292     45.34     44.90    -26.19     24.00
   29.5394     45.87     44.77    -25.54     24.00
   29.5496     45.52     44.65    -25.77     24.00
   29.5597     44.79     44.54    -26.38     24.00
   29.5699     45.29     44.43    -25.77     24.00
   29.5801     45.25     44.32    -25.70     24.00
   29.5902     44.66     44.21    -26.19     24.00
   29.6004     44.63     44.11    -26.12     24.00
   29.6106     45.02     44.01    -25.63     24.00
   29.6207     44.24     43.91    -26.31     24.00
   29.6309     44.11     43.82    -26.35     24.00
   29.6410     44.34     43.73    -26.03     24.00
   29.6512     44.12     43.64    -26.16     24.00
   29.6614     44.07     43.55    -26.12     24.00
   29.6715     44.34     43.47    -25.77     24.00
   29.6817     43.84     43.39    -26.18     24.00
   29.6919     43.80     43.31    -26.14     24.00
   29.7020     43.52     43.23    -26.35     24.00
   29.7122     43.08     43.15    -26.71     24.00
   29.7224     43.90     43.08    -25.82     24.00
   29.7325     42.82     43.01    -26.82     24.00
   29.7427     43.99     42.94    -25.58     24.00
   29.7529     43.08     42.87    -26.42     24.00
   29.7630     44.11     42.80    -25.32     24.00
   29.7732     42.83     42.73    -26.54     24.00
   29.7833     42.93     42.67    -26.37     24.00
   29.7935     44.02     42.60    -25.22     24.00
   29.8037     42.94     42.54    -26.23     24.00
   29.8138     41.56     42.48    -27.55     24.00
   29.8240     42.72     42.41    -26.33     24.00
   29.8342     42.62     42.35    -26.37     24.00
   29.8443     43.06     42.29    -25.87     24.00
   29.8545     41.82     42.23    -27.05     24.00
   29.8647     42.22     42.18    -26.59     24.00
   29.8748     42.88     42.12    -25.87     24.00
   29.8850     42.14     42.06    -26.56     24.00
   29.8952     42.77     42.00    -25.87     24.00
   29.9053     42.27     41.95    -26.31     24.00
   29.9155     44.13     41.89    -24.40     24.00
   29.9257     40.49     41.84    -27.98     24.00
   29.9358     41.05     41.78    -27.37     24.00
   29.9460     41.21     41.73    -27.15     24.00
   29.9561     41.63     41.67    -26.68     24.00
   29.9663     42.10     41.62    -26.15     24.00
   29.9765     41.52     41.56    -26.68     24.00
   29.9866     41.55     41.51    -26.59     24.00
   29.9968     42.20     41.45    -25.89     24.00
   30.0070     42.54     41.40    -25.49     24.00
   30.0171     41.82     41.34    -26.16     24.00
   30.0273     41.63     41.29    -26.29     24.00
   30.0375     41.92     41.23    -25.95     24.00
   30.0476     41.48     41.18    -26.34     24.00
   30.0578     41.28     41.12    -26.48     24.00
   30.0680     41.13     41.07    -26.57     24.00
   30.0781     41.05     41.01    -26.60     24.00
   30.0883     40.40     40.96    -27.19     24.00
   30.0984     41.91     40.90    -25.63     24.00
   30.1086     40.90     40.85    -26.58     24.00
   30.1188     40.63     40.79    -26.80     24.00
   30.1289     41.03     40.73    -26.34     24.00
   30.1391     40.13     40.68    -27.18     24.00
   30.1493     40.84     40.62    -26.42     24.00
   30.1594     40.48     40.56    -26.72     24.00
   30.1696     39.54     40.50    -27.60     24.00
   30.1798     39.68     40.45    -27.40     24.00
   30.1899     40.23     40.39    -26.79     24.00
   30.2001     40.45     40.33    -26.51     24.00
   30.2103     40.20     40.27    -26.71     24.00
   30.2204     40.32     40.21    -26.53     24.00
   30.2306     40.91     40.15    -25.88     24.00
   30.2408     40.16     40.09    -26.57     24.00
   30.2509     41.28     40.03    -25.39     24.00
   30.2611     39.28     39.97    -27.32     24.00
   30.2712     39.69     39.91    -26.85     24.00
   30.2814     39.69     39.85    -26.79     24.00
   30.2916     39.65     39.78    -26.77     24.00
   30.3017     39.27     39.72    -27.09     24.00
   30.3119     38.94     39.66    -27.36     24.00
   30.3221     39.07     39.60    -27.16     24.00
   30.3322     40.14     39.53    -26.03     24.00
   30.3424     38.85     39.47    -27.26     24.00
   30.3526     38.29     39.40    -27.75     24.00
   30.3627     39.29     39.34    -26.69     24.00
   30.3729     38.76     39.28    -27.15     24.00
   30.3831     37.95     39.21    -27.90     24.00
   30.3932     38.27     39.15    -27.51     24.00
   30.4034     38.87     39.08    -26.85     24.00
   30.4135     38.55     39.01    -27.10     24.00
   30.4237     37.83     38.95    -27.75     24.00
   30.4339     37.46     38.88    -28.06     24.00
   30.4440     37.01     38.81    -28.44     24.00
   30.4542     37.80     38.75    -27.58     24.00
   30.4644     36.76     38.68    -28.56     24.00
   30.4745     36.58     38.61    -28.67     24.00
   30.4847     36.52     38.54    -28.66     24.00
   30.4949     36.92     38.48    -28.19     24.00
   30.5050     37.10     38.41    -27.94     24.00
   30.5152     36.27     38.34    -28.70     24.00
   30.5254     37.84     38.27    -27.07     24.00
   30.5355     36.27     38.20    -28.57     24.00
   30.5457     36.88     38.13    -27.89     24.00
   30.5559     37.06     38.06    -27.64     24.00
   30.5660     36.47     37.99    -28.16     24.00
   30.5762     36.35     37.92    -28.21     24.00
   30.5863     36.82     37.85    -27.67     24.00
   30.5965     35.93     37.78    -28.49     24.00
   30.6067     36.40     37.71    -27.95     24.00
   30.6168     36.81     37.64    -27.47     24.00
   30.6270     36.01     37.57    -28.20     24.00
   30.6372     36.63     37.50    -27.51     24.00
   30.6473     36.23     37.43    -27.84     24.00
   30.6575     35.78     37.36    -28.21     24.00
   30.6677     35.32     37.29    -28.60     24.00
   30.6778     35.67     37.22    -28.18     24.00
   30.6880     36.07     37.15    -27.71     24.00
   30.6982     34.38     37.07    -29.33     24.00
   30.7083     35.31     37.00    -28.33     24.00
   30.7185     35.20     36.93    -28.37     24.00
   30.7286     35.19     36.86    -28.31     24.00
   30.7388     35.38     36.79    -28.05     24.00
   30.7490     35.24     36.72    -28.12     24.00
   30.7591     35.14     36.65    -28.14     24.00
   30.7693     34.66     36.58    -28.55     24.00
   30.7795     35.11     36.51    -28.03     24.00
   30.7896     34.93     36.44    -28.14     24.00
   30.7998     34.98     36.36    -28.02     24.00
   30.8100     34.11     36.29    -28.82     24.00
   30.8201     35.02     36.22    -27.84     24.00
   30.8303     35.15     36.15    -27.64     24.00
   30.8405     34.29     36.08    -28.43     24.00
   30.8506     34.21     36.01    -28.44     24.00
   30.8608     35.02     35.94    -27.56     24.00
   30.8710     35.30     35.87    -27.21     24.00
   30.8811     33.99     35.80    -28.45     24.00
   30.8913     34.76     35.73    -27.61     24.00
   30.9014     34.43     35.66    -27.87     24.00
   30.9116     33.88     35.59    -28.35     24.00
   30.9218     34.39     35.52    -27.77     24.00
   30.9319     33.57     35.46    -28.52     24.00
   30.9421     34.06     35.39    -27.96     24.00
   30.9523     34.84     35.32    -27.11     24.00
   30.9624     34.53     35.25    -27.36     24.00
   30.9726     33.57     35.18    -28.25     24.00
   30.9828     33.19     35.11    -28.56     24.00
   30.9929     33.38     35.05    -28.30     24.00
   31.0031     33.74     34.98    -27.88     24.00
   31.0133     33.34     34.91    -28.21     24.00
   31.0234     33.88     34.85    -27.60     24.00
   31.0336     33.69     34.78    -27.73     24.00
   31.0437     33.46     34.71    -27.89     24.00
   31.0539     33.57     34.65    -27.71     24.00
   31.0641     33.41     34.58    -27.81     24.00
   31.0742     34.55     34.52    -26.60     24.00
   31.0844     34.17     34.45    -26.92     24.00
   31.0946     32.40     34.39    -28.63     24.00
   31.1047     33.14     34.33    -27.82     24.00
   31.1149     33.28     34.26    -27.62     24.00
   31.1251     33.23     34.20    -27.61     24.00
   31.1352     34.09     34.14    -26.68     24.00
   31.1454     33.20     34.07    -27.51     24.00
   31.1556     32.83     34.01    -27.82     24.00
   31.1657     33.24     33.95    -27.35     24.00
   31.1759     32.38     33.89    -28.15     24.00
   31.1860     33.41     33.83    -27.06     24.00
   31.1962     32.80     33.77    -27.61     24.00
   31.2064     33.66     33.71    -26.69     24.00
   31.2165     33.01     33.65    -27.28     24.00
   31.2267     33.21     33.59    -27.02     24.00
   31.2369     32.04     33.53    -28.13     24.00
   31.2470     32.56     33.48    -27.55     24.00
   31.2572     33.68     33.42    -26.37     24.00
   31.2674     31.84     33.36    -28.16     24.00
   31.2775     32.97     33.31    -26.97     24.00
   31.2877     32.88     33.25    -27.01     24.00
   31.2979     32.44     33.19    -27.39     24.00
   31.3080     33.59     33.14    -26.19     24.00
   31.3182     32.34     33.08    -27.38     24.00
   31.3284     32.49     33.03    -27.18     24.00
   31.3385     31.86     32.98    -27.75     24.00
   31.3487     32.89     32.93    -26.67     24.00
   31.3588     32.04     32.87    -27.47     24.00
   31.3690     33.07     32.82    -26.39     24.00
   31.3792     31.91     32.77    -27.50     24.00
   31.3893     32.65     32.72    -26.71     24.00
   31.3995     32.37     32.67    -26.94     24.00
   31.4097     32.18     32.62    -27.08     24.00
   31.4198     32.55     32.57    -26.66     24.00
   31.4300     32.57     32.52    -26.59     24.00
   31.4402     32.62     32.48    -26.49     24.00
   31.4503     32.20     32.43    -26.86     24.00
   31.4605     32.23     32.38    -26.79     24.00
   31.4707     32.23     32.34    -26.74     24.00
   31.4808     32.38     32.29    -26.55     24.00
   31.4910     32.74     32.25    -26.14     24.00
   31.5011     32.85     32.20    -25.99     24.00
   31.5113     32.37     32.16    -26.42     24.00
   31.5215     32.76     32.12    -25.99     24.00
   31.5316     32.09     32.07    -26.62     24.00
   31.5418     31.88     32.03    -26.79     24.00
   31.5520     32.86     31.99    -25.77     24.00
   31.5621     32.34     31.95    -26.25     24.00
   31.5723     32.21     31.91    -26.34     24.00
   31.5825     31.96     31.87    -26.55     24.00
   31.5926     31.84     31.83    -26.63     24.00
   31.6028     31.67     31.79    -26.76     24.00
   31.6130     32.24     31.76    -26.15     24.00
   31.6231     32.84     31.72    -25.52     24.00
   31.6333     32.55     31.68    -25.77     24.00
   31.6435     32.63     31.65    -25.65     24.00
   31.6536     33.21     31.61    -25.04     24.00
   31.6638     31.88     31.58    -26.33     24.00
   31.6739     32.08     31.55    -26.10     24.00
   31.6841     32.45     31.51    -25.70     24.00
   31.6943     31.84     31.48    -26.28     24.00
   31.7044     32.35     31.45    -25.73     24.00
   31.7146     32.80     31.42    -25.25     24.00
   31.7248     31.58     31.39    -26.44     24.00
   31.7349     31.84     31.36    -26.15     24.00
   31.7451     32.15     31.33    -25.81     24.00
   31.7553     31.76     31.30    -26.17     24.00
   31.7654     31.66     31.27    -26.24     24.00
   31.7756     32.22     31.24    -25.66     24.00
   31.7858     31.94     31.21    -25.91     24.00
   31.7959     32.02     31.19    -25.80     24.00
   31.8061     31.62     31.16    -26.18     24.00
   31.8162     31.99     31.14    -25.78     24.00
   31.8264     31.56     31.11    -26.19     24.00
   31.8366     31.77     31.09    -25.95     24.00
   31.8467     32.50     31.06    -25.20     24.00
   31.8569     31.65     31.04    -26.03     24.00
   31.8671     32.19     31.02    -25.47     24.00
   31.8772     32.09     31.00    -25.54     24.00
   31.8874     31.70     30.98    -25.91     24.00
   31.8976     31.86     30.96    -25.73     24.00
   31.9077     32.15     30.94    -25.42     24.00
   31.9179     32.33     30.92    -25.22     24.00
   31.9281     31.71     30.90    -25.82     24.00
   31.9382     31.60     30.88    -25.92     24.00
   31.9484     31.75     30.86    -25.75     24.00
   31.9586     32.87     30.84    -24.61     24.00
   31.9687     32.40     30.83    -25.06     24.00
   31.9789     32.15     30.81    -25.30     24.00
   31.9890     32.87     30.80    -24.56     24.00
   31.9992     32.27     30.78    -25.15     24.00
   32.0094     32.74     30.77    -24.66     24.00
   32.0195     31.96     30.75    -25.43     24.00
   32.0297     32.39     30.74    -24.99     24.00
   32.0399     32.62     30.73    -24.74     24.00
   32.0500     31.92     30.71    -25.43     24.00
   32.0602     32.18     30.70    -25.16     24.00
   32.0704     32.21     30.69    -25.12     24.00
   32.0805     32.32     30.68    -25.00     24.00
   32.0907     31.41     30.67    -25.90     24.00
   32.1009     32.27     30.66    -25.03     24.00
   32.1110     31.45     30.65    -25.84     24.00
   32.1212     32.46     30.64    -24.82     24.00
   32.1313     31.73     30.63    -25.54     24.00
   32.1415     33.24     30.62    -24.02     24.00
   32.1517     31.31     30.62    -25.94     24.00
   32.1618     31.75     30.61    -25.50     24.00
   32.1720     31.84     30.60    -25.40     24.00
   32.1822     31.96     30.60    -25.27     24.00
   32.1923     32.60     30.59    -24.63     24.00
   32.2025     32.20     30.58    -25.02     24.00
   32.2127     32.35     30.58    -24.87     24.00
   32.2228     32.26     30.58    -24.95     24.00
   32.2330     31.87     30.57    -25.34     24.00
   32.2432     32.60     30.57    -24.60     24.00
   32.2533     31.72     30.56    -25.48     24.00
   32.2635     32.99     30.56    -24.21     24.00
   32.2737     32.12     30.56    -25.07     24.00
   32.2838     33.25     30.56    -23.94     24.00
   32.2940     32.66     30.55    -24.53     24.00
   32.3041     32.40     30.55    -24.79     24.00
   32.3143     32.06     30.55    -25.13     24.00
   32.3245     31.92     30.55    -25.26     24.00
   32.3346     32.18     30.55    -25.00     24.00
   32.3448     32.44     30.55    -24.74     24.00
   32.3550     31.95     30.55    -25.23     24.00
   32.3651     32.96     30.55    -24.22     24.00
   32.3753     32.00     30.55    -25.18     24.00
   32.3855     32.46     30.55    -24.73     24.00
   32.3956     32.53     30.55    -24.66     24.00
   32.4058     32.49     30.55    -24.70     24.00
   32.4160     32.85     30.55    -24.34     24.00
   32.4261     32.01     30.55    -25.18     24.00
   32.4363     32.27     30.56    -24.92     24.00
   32.4464     32.34     30.56    -24.86     24.00
   32.4566     32.79     30.56    -24.41     24.00
   32.4668     33.65     30.56    -23.55     24.00
   32.4769     32.68     30.57    -24.52     24.00
   32.4871     32.34     30.57    -24.87     24.00
   32.4973     32.11     30.57    -25.10     24.00
   32.5074     32.72     30.58    -24.49     24.00
   32.5176     33.02     30.58    -24.20     24.00
   32.5278     32.77     30.59    -24.45     24.00
   32.5379     33.07     30.59    -24.16     24.00
   32.5481     31.88     30.59    -25.35     24.00
   32.5583     33.02     30.60    -24.21     24.00
   32.5684     33.27     30.60    -23.97     24.00
   32.5786     32.87     30.61    -24.37     24.00
   32.5888     32.78     30.61    -24.47     24.00
   32.5989     32.36     30.62    -24.89     24.00
   32.6091     32.23     30.62    -25.03     24.00
   32.6192     33.04     30.63    -24.22     24.00
   32.6294     33.07     30.63    -24.20     24.00
   32.6396     32.71     30.64    -24.56     24.00
   32.6497     32.60     30.64    -24.68     24.00
   32.6599     32.16     30.65    -25.12     24.00
   32.6701     32.38     30.65    -24.91     24.00
   32.6802     31.93     30.66    -25.36     24.00
   32.6904     33.18     30.66    -24.12     24.00
   32.7006     32.38     30.67    -24.93     24.00
   32.7107     32.73     30.68    -24.58     24.00
   32.7209     32.10     30.68    -25.22     24.00
   32.7311     32.23     30.69    -25.09     24.00
   32.7412     32.61     30.69    -24.72     24.00
   32.7514     32.74     30.70    -24.59     24.00
   32.7615     31.97     30.70    -25.37     24.00
   32.7717     32.45     30.71    -24.89     24.00
   32.7819     32.13     30.71    -25.22     24.00
   32.7920     32.02     30.72    -25.34     24.00
   32.8022     32.40     30.73    -24.96     24.00
   32.8124     32.63     30.73    -24.74     24.00
   32.8225     32.13     30.74    -25.24     24.00
   32.8327     32.47     30.74    -24.91     24.00
   32.8429     32.01     30.75    -25.37     24.00
   32.8530     31.43     30.75    -25.96     24.00
   32.8632     32.95     30.76    -24.44     24.00
   32.8734     32.96     30.76    -24.44     24.00
   32.8835     32.65     30.77    -24.75     24.00
   32.8937     32.77     30.77    -24.64     24.00
   32.9039     32.46     30.78    -24.95     24.00
   32.9140     32.85     30.78    -24.57     24.00
   32.9242     32.91     30.78    -24.51     24.00
   32.9343     31.89     30.79    -25.53     24.00
   32.9445     32.16     30.79    -25.27     24.00
   32.9547     32.32     30.80    -25.11     24.00
   32.9648     32.71     30.80    -24.73     24.00
   32.9750     32.23     30.80    -25.21     24.00
   32.9852     32.33     30.81    -25.11     24.00
   32.9953     33.27     30.81    -24.18     24.00
   33.0055     31.34     30.81    -26.11     24.00
   33.0157     33.32     30.82    -24.13     24.00
   33.0258     32.46     30.82    -24.99     24.00
   33.0360     32.40     30.82    -25.06     24.00
   33.0462     32.07     30.82    -25.39     24.00
   33.0563     32.65     30.83    -24.81     24.00
   33.0665     32.38     30.83    -25.08     24.00
   33.0766     32.88     30.83    -24.58     24.00
   33.0868     31.45     30.83    -26.02     24.00
   33.0970     33.14     30.83    -24.33     24.00
   33.1071     32.75     30.83    -24.72     24.00
   33.1173     33.08     30.83    -24.39     24.00
   33.1275     32.41     30.83    -25.06     24.00
   33.1376     32.80     30.83    -24.67     24.00
   33.1478     32.08     30.83    -25.39     24.00
   33.1580     32.16     30.83    -25.31     24.00
   33.1681     31.94     30.83    -25.53     24.00
   33.1783     32.07     30.83    -25.40     24.00
   33.1885     32.81     30.83    -24.66     24.00
   33.1986     32.49     30.83    -24.97     24.00
   33.2088     32.77     30.83    -24.69     24.00
   33.2189     32.55     30.82    -24.91     24.00
   33.2291     32.79     30.82    -24.67     24.00
   33.2393     32.70     30.82    -24.76     24.00
   33.2494     32.89     30.82    -24.56     24.00
   33.2596     32.06     30.81    -25.39     24.00
   33.2698     32.76     30.81    -24.69     24.00
   33.2799     32.65     30.81    -24.79     24.00
   33.2901     32.77     30.80    -24.67     24.00
   33.3003     33.03     30.80    -24.40     24.00
   33.3104     33.02     30.79    -24.41     24.00
   33.3206     32.57     30.79    -24.85     24.00
   33.3308     32.70     30.78    -24.72     24.00
   33.3409     31.97     30.78    -25.44     24.00
   33.3511     33.20     30.77    -24.21     24.00
   33.3613     32.93     30.76    -24.47     24.00
   33.3714     33.24     30.76    -24.15     24.00
   33.3816     32.39     30.75    -25.00     24.00
   33.3917     33.02     30.74    -24.36     24.00
   33.4019     32.52     30.73    -24.85     24.00
   33.4121     32.01     30.73    -25.35     24.00
   33.4222     31.74     30.72    -25.61     24.00
   33.4324     32.88     30.71    -24.46     24.00
   33.4426     32.27     30.70    -25.07     24.00
   33.4527     32.17     30.69    -25.16     24.00
   33.4629     32.16     30.68    -25.16     24.00
   33.4731     31.76     30.67    -25.55     24.00
   33.4832     31.79     30.66    -25.51     24.00
   33.4934     31.76     30.65    -25.52     24.00
   33.5036     32.47     30.64    -24.80     24.00
   33.5137     33.04     30.63    -24.22     24.00
   33.5239     32.20     30.61    -25.05     24.00
   33.5340     31.87     30.60    -25.37     24.00
   33.5442     31.17     30.59    -26.05     24.00
   33.5544     31.41     30.58    -25.80     24.00
   33.5645     32.08     30.56    -25.12     24.00
   33.5747     31.67     30.55    -25.51     24.00
   33.5849     31.34     30.53    -25.83     24.00
   33.5950     31.05     30.52    -26.11     24.00
   33.6052     30.96     30.51    -26.18     24.00
   33.6154     31.05     30.49    -26.08     24.00
   33.6255     31.46     30.47    -25.65     24.00
   33.6357     31.25     30.46    -25.84     24.00
   33.6459     31.05     30.44    -26.03     24.00
   33.6560     31.41     30.43    -25.65     24.00
   33.6662     30.43     30.41    -26.62     24.00
   33.6764     30.54     30.39    -26.49     24.00
   33.6865     31.12     30.37    -25.89     24.00
   33.6967     30.65     30.36    -26.34     24.00
   33.7068     30.41     30.34    -26.56     24.00
   33.7170     30.16     30.32    -26.80     24.00
   33.7272     29.96     30.30    -26.98     24.00
   33.7373     30.41     30.28    -26.51     24.00
   33.7475     30.27     30.26    -26.63     24.00
   33.7577     30.10     30.24    -26.78     24.00
   33.7678     30.11     30.22    -26.75     24.00
   33.7780     29.54     30.20    -27.30     24.00
   33.7882     29.41     30.18    -27.41     24.00
   33.7983     30.09     30.16    -26.71     24.00
   33.8085     29.12     30.14    -27.65     24.00
   33.8187     29.84     30.12    -26.91     24.00
   33.8288     29.04     30.09    -27.69     24.00
   33.8390     29.59     30.07    -27.12     24.00
   33.8491     29.24     30.05    -27.45     24.00
   33.8593     28.41     30.03    -28.25     24.00
   33.8695     29.30     30.00    -27.34     24.00
   33.8796     28.49     29.98    -28.13     24.00
   33.8898     28.30     29.96    -28.29     24.00
   33.9000     29.76     29.93    -26.81     24.00
   33.9101     28.24     29.91    -28.30     24.00
   33.9203     28.30     29.88    -28.22     24.00
   33.9305     28.29     29.86    -28.20     24.00
   33.9406     27.39     29.83    -29.08     24.00
   33.9508     29.18     29.81    -27.26     24.00
   33.9610     28.07     29.78    -28.35     24.00
   33.9711     28.29     29.75    -28.10     24.00
   33.9813     29.29     29.73    -27.07     24.00
   33.9915     27.69     29.70    -28.65     24.00
   34.0016     28.13     29.67    -28.18     24.00
   34.0118     27.60     29.65    -28.68     24.00
   34.0219     27.44     29.62    -28.82     24.00
   34.0321     28.23     29.59    -28.00     24.00
   34.0423     27.18     29.56    -29.02     24.00
   34.0524     27.43     29.54    -28.74     24.00
   34.0626     27.79     29.51    -28.35     24.00
   34.0728     27.54     29.48    -28.58     24.00
   34.0829     27.13     29.45    -28.96     24.00
   34.0931     27.48     29.42    -28.58     24.00
   34.1033     28.18     29.39    -27.85     24.00
   34.1134     27.35     29.36    -28.65     24.00
   34.1236     27.75     29.33    -28.22     24.00
   34.1338     27.00     29.30    -28.94     24.00
   34.1439     26.98     29.27    -28.93     24.00
   34.1541     27.40     29.24    -28.48     24.00
   34.1642     27.54     29.21    -28.31     24.00
   34.1744     26.75     29.18    -29.07     24.00
   34.1846     26.87     29.15    -28.92     24.00
   34.1947     27.16     29.12    -28.60     24.00
   34.2049     26.25     29.09    -29.48     24.00
   34.2151     26.42     29.06    -29.28     24.00
   34.2252     27.17     29.03    -28.50     24.00
   34.2354     26.34     29.00    -29.29     24.00
   34.2456     26.49     28.97    -29.11     24.00
   34.2557     27.02     28.94    -28.55     24.00
   34.2659     25.77     28.90    -29.77     24.00
   34.2761     26.45     28.87    -29.06     24.00
   34.2862     26.17     28.84    -29.31     24.00
   34.2964     26.52     28.81    -28.92     24.00
   34.3066     26.07     28.77    -29.34     24.00
   34.3167     26.20     28.74    -29.18     24.00
   34.3269     26.46     28.71    -28.89     24.00
   34.3370     26.01     28.68    -29.30     24.00
   34.3472     26.55     28.65    -28.73     24.00
   34.3574     26.15     28.61    -29.10     24.00
   34.3675     26.90     28.58    -28.32     24.00
   34.3777     26.71     28.55    -28.47     24.00
   34.3879     25.76     28.51    -29.39     24.00
   34.3980     26.46     28.48    -28.66     24.00
   34.4082     26.16     28.45    -28.92     24.00
   34.4184     25.99     28.41    -29.06     24.00
   34.4285     26.24     28.38    -28.78     24.00
   34.4387     25.79     28.35    -29.19     24.00
   34.4489     25.79     28.32    -29.16     24.00
   34.4590     25.80     28.28    -29.12     24.00
   34.4692     26.16     28.25    -28.72     24.00
   34.4793     26.27     28.22    -28.58     24.00
   34.4895     25.85     28.18    -28.97     24.00
   34.4997     25.62     28.15    -29.16     24.00
   34.5098     25.68     28.12    -29.07     24.00
   34.5200     25.39     28.08    -29.33     24.00
   34.5302     26.56     28.05    -28.12     24.00
   34.5403     25.49     28.02    -29.16     24.00
   34.5505     25.10     27.98    -29.52     24.00
   34.5607     25.79     27.95    -28.79     24.00
   34.5708     25.40     27.92    -29.15     24.00
   34.5810     25.93     27.88    -28.59     24.00
   34.5912     25.77     27.85    -28.71     24.00
   34.6013     25.66     27.82    -28.79     24.00
   34.6115     25.40     27.78    -29.02     24.00
   34.6217     26.68     27.75    -27.71     24.00
   34.6318     26.07     27.72    -28.28     24.00
   34.6420     24.70     27.68    -29.62     24.00
   34.6521     24.98     27.65    -29.31     24.00
   34.6623     25.48     27.62    -28.77     24.00
   34.6725     25.63     27.58    -28.59     24.00
   34.6826     25.18     27.55    -29.01     24.00
   34.6928     25.42     27.52    -28.74     24.00
   34.7030     26.27     27.49    -27.85     24.00
   34.7131     25.51     27.45    -28.58     24.00
   34.7233     25.43     27.42    -28.63     24.00
   34.7335     25.19     27.39    -28.83     24.00
   34.7436     25.15     27.36    -28.84     24.00
   34.7538     24.90     27.32    -29.06     24.00
   34.7640     25.00     27.29    -28.93     24.00
   34.7741     25.73     27.26    -28.17     24.00
   34.7843     25.31     27.23    -28.55     24.00
   34.7944     25.43     27.20    -28.40     24.00
   34.8046     24.85     27.16    -28.95     24.00
   34.8148     24.07     27.13    -29.70     24.00
   34.8249     25.29     27.10    -28.45     24.00
   34.8351     24.66     27.07    -29.05     24.00
   34.8453     25.34     27.04    -28.33     24.00
   34.8554     24.65     27.01    -28.99     24.00
   34.8656     24.86     26.98    -28.75     24.00
   34.8758     24.70     26.95    -28.88     24.00
   34.8859     25.01     26.91    -28.54     24.00
   34.8961     24.95     26.88    -28.57     24.00
   34.9063     25.29     26.85    -28.20     24.00
   34.9164     24.20     26.82    -29.26     24.00
   34.9266     25.32     26.79    -28.11     24.00
   34.9367     24.32     26.76    -29.08     24.00
   34.9469     25.88     26.73    -27.49     24.00
   34.9571     24.44     26.70    -28.90     24.00
   34.9672     25.10     26.67    -28.21     24.00
   34.9774     24.93     26.64    -28.35     24.00
   34.9876     25.27     26.62    -27.98     24.00
   34.9977     25.05     26.59    -28.17     24.00
   35.0079     24.85     26.56    -28.34     24.00
   35.0181     24.54     26.53    -28.62     24.00
   35.0282     24.83     26.50    -28.31     24.00
   35.0384     24.91     26.47    -28.20     24.00
   35.0486     24.91     26.44    -28.17     24.00
   35.0587     24.92     26.42    -28.13     24.00
   35.0689     24.30     26.39    -28.72     24.00
   35.0791     25.35     26.36    -27.65     24.00
   35.0892     24.87     26.33    -28.10     24.00
   35.0994     24.70     26.30    -28.24     24.00
   35.1095     25.15     26.28    -27.76     24.00
   35.1197     24.31     26.25    -28.58     24.00
   35.1299     25.02     26.22    -27.84     24.00
   35.1400     24.54     26.20    -28.29     24.00
   35.1502     25.04     26.17    -27.77     24.00
   35.1604     24.90     26.14    -27.88     24.00
   35.1705     24.52     26.12    -28.24     24.00
   35.1807     24.42     26.09    -28.31     24.00
   35.1909     25.24     26.07    -27.46     24.00
   35.2010     24.82     26.04    -27.86     24.00
   35.2112     24.99     26.02    -27.66     24.00
   35.2214     24.88     25.99    -27.75     24.00
   35.2315     24.91     25.97    -27.69     24.00
   35.2417     25.09     25.94    -27.49     24.00
   35.2518     24.01     25.92    -28.54     24.00
   35.2620     24.80     25.89    -27.73     24.00
   35.2722     24.09     25.87    -28.42     24.00
   35.2823     24.82     25.85    -27.66     24.00
   35.2925     24.66     25.82    -27.80     24.00
   35.3027     24.50     25.80    -27.93     24.00
   35.3128     24.70     25.78    -27.71     24.00
   35.3230     23.68     25.75    -28.71     24.00
   35.3332     24.53     25.73    -27.84     24.00
   35.3433     24.66     25.71    -27.68     24.00
   35.3535     24.88     25.69    -27.44     24.00
   35.3637     24.18     25.66    -28.12     24.00
   35.3738     24.48     25.64    -27.80     24.00
   35.3840     24.49     25.62    -27.77     24.00
   35.3942     24.43     25.60    -27.80     24.00
   35.4043     24.65     25.58    -27.56     24.00
   35.4145     24.85     25.56    -27.34     24.00
   35.4246     23.90     25.53    -28.27     24.00
   35.4348     24.34     25.51    -27.81     24.00
   35.4450     24.49     25.49    -27.64     24.00
   35.4551     24.53     25.47    -27.58     24.00
   35.4653     24.39     25.45    -27.70     24.00
   35.4755     24.30     25.43    -27.77     24.00
   35.4856     23.75     25.41    -28.30     24.00
   35.4958     24.20     25.39    -27.83     24.00
   35.5060     24.72     25.37    -27.29     24.00
   35.5161     24.07     25.36    -27.92     24.00
   35.5263     23.68     25.34    -28.29     24.00
   35.5365     24.77     25.32    -27.18     24.00
   35.5466     23.95     25.30    -27.99     24.00
   35.5568     23.71     25.28    -28.21     24.00
   35.5669     24.29     25.26    -27.61     24.00
   35.5771     24.48     25.25    -27.40     24.00
   35.5873     24.23     25.23    -27.63     24.00
   35.5974     24.31     25.21    -27.54     24.00
   35.6076     24.16     25.19    -27.67     24.00
   35.6178     24.64     25.18    -27.17     24.00
   35.6279     24.55     25.16    -27.24     24.00
   35.6381     24.87     25.14    -26.91     24.00
   35.6483     24.14     25.13    -27.62     24.00
   35.6584     24.20     25.11    -27.55     24.00
   35.6686     24.30     25.09    -27.43     24.00
   35.6788     24.64     25.08    -27.07     24.00
   35.6889     23.54     25.06    -28.16     24.00
   35.6991     24.07     25.05    -27.61     24.00
   35.7093     24.61     25.03    -27.06     24.00
   35.7194     24.48     25.02    -27.17     24.00
   35.7296     23.78     25.00    -27.86     24.00
   35.7397     23.82     24.99    -27.80     24.00
   35.7499     24.52     24.97    -27.09     24.00
   35.7601     23.98     24.96    -27.61     24.00
   35.7702     24.31     24.94    -27.27     24.00
   35.7804     24.16     24.93    -27.40     24.00
   35.7906     24.04     24.91    -27.51     24.00
   35.8007     23.88     24.90    -27.66     24.00
   35.8109     24.04     24.89    -27.48     24.00
   35.8211     24.22     24.87    -27.29     24.00
   35.8312     24.09     24.86    -27.41     24.00
   35.8414     23.73     24.85    -27.75     24.00
   35.8516     23.71     24.84    -27.76     24.00
   35.8617     24.48     24.82    -26.98     24.00
   35.8719     24.21     24.81    -27.24     24.00
   35.8820     23.53     24.80    -27.90     24.00
   35.8922     23.94     24.79    -27.48     24.00
   35.9024     24.73     24.77    -26.68     24.00
   35.9125     23.91     24.76    -27.49     24.00
   35.9227     23.57     24.75    -27.82     24.00
   35.9329     23.68     24.74    -27.70     24.00
   35.9430     23.74     24.73    -27.62     24.00
   35.9532     23.71     24.72    -27.64     24.00
   35.9634     24.34     24.71    -27.00     24.00
   35.9735     23.98     24.69    -27.35     24.00
   35.9837     24.59     24.68    -26.73     24.00
   35.9939     24.20     24.67    -27.11     24.00
