 => TITLE: 
 => Data file name: C:\Users\stefano\Nextcloud2\uni\master-thesis\XRD\data\G302\G302--5-40-0.01-1000ms.xy
 => Instrm        :    1
 => Lambda(1&2)   :   1.54060  1.54060
 => Numb.of.points:      2951
 => Numb.of.peaks :         8
    2Theta     Yobs     Ycalc  Yobs-Ycal    Backg    Bragg     Posr  Intensity   FWHM    Eta
    6.0086     23.65     25.65    -27.82     24.00   18.9127     -1.76     138.77  0.8754  0.1413
    6.0187     23.15     25.65    -28.32     24.00   20.6419     -1.76     100.31  1.8378  0.1413
    6.0289     22.86     25.66    -28.62     24.00   22.7291     -1.76     112.01  1.3634  0.1413
    6.0391     23.38     25.67    -28.11     24.00   28.7172     -1.76      15.68  0.8942  0.1413
    6.0492     22.68     25.67    -28.81     24.00   29.2883     -1.76      47.66  2.6760  0.1413
    6.0594     22.41     25.68    -29.09     24.00   32.9585     -1.76      19.17  2.6760  0.1413
    6.0696     22.57     25.68    -28.93     24.00   17.8910     -1.76      94.68  2.6760  0.1413
    6.0797     23.20     25.69    -28.31     24.00   20.1213     -1.76     799.13 11.1539  0.1413
    6.0899     22.85     25.69    -28.66     24.00
    6.1001     22.93     25.70    -28.59     24.00
    6.1102     23.05     25.71    -28.48     24.00
    6.1204     22.81     25.71    -28.72     24.00
    6.1306     22.61     25.72    -28.93     24.00
    6.1407     23.54     25.72    -28.00     24.00
    6.1509     22.57     25.73    -28.98     24.00
    6.1611     23.04     25.74    -28.52     24.00
    6.1712     22.39     25.74    -29.17     24.00
    6.1814     24.05     25.75    -27.52     24.00
    6.1915     23.08     25.75    -28.49     24.00
    6.2017     22.61     25.76    -28.97     24.00
    6.2119     22.85     25.77    -28.74     24.00
    6.2220     22.86     25.77    -28.73     24.00
    6.2322     22.53     25.78    -29.07     24.00
    6.2424     22.82     25.78    -28.78     24.00
    6.2525     22.62     25.79    -28.99     24.00
    6.2627     22.86     25.80    -28.76     24.00
    6.2729     23.48     25.80    -28.14     24.00
    6.2830     22.79     25.81    -28.84     24.00
    6.2932     22.65     25.82    -28.99     24.00
    6.3034     23.24     25.82    -28.40     24.00
    6.3135     22.30     25.83    -29.35     24.00
    6.3237     22.90     25.84    -28.76     24.00
    6.3338     22.96     25.84    -28.70     24.00
    6.3440     22.98     25.85    -28.69     24.00
    6.3542     22.47     25.85    -29.20     24.00
    6.3643     22.98     25.86    -28.70     24.00
    6.3745     23.49     25.87    -28.20     24.00
    6.3847     22.48     25.87    -29.21     24.00
    6.3948     23.05     25.88    -28.65     24.00
    6.4050     23.04     25.89    -28.67     24.00
    6.4152     23.36     25.89    -28.35     24.00
    6.4253     22.90     25.90    -28.82     24.00
    6.4355     22.51     25.91    -29.22     24.00
    6.4457     23.39     25.92    -28.35     24.00
    6.4558     22.80     25.92    -28.94     24.00
    6.4660     22.88     25.93    -28.87     24.00
    6.4762     23.49     25.94    -28.27     24.00
    6.4863     23.51     25.94    -28.25     24.00
    6.4965     22.55     25.95    -29.22     24.00
    6.5066     23.13     25.96    -28.65     24.00
    6.5168     22.87     25.96    -28.91     24.00
    6.5270     23.77     25.97    -28.02     24.00
    6.5371     23.70     25.98    -28.10     24.00
    6.5473     23.57     25.99    -28.24     24.00
    6.5575     23.68     25.99    -28.13     24.00
    6.5676     23.16     26.00    -28.66     24.00
    6.5778     22.71     26.01    -29.12     24.00
    6.5880     24.29     26.01    -27.54     24.00
    6.5981     23.04     26.02    -28.80     24.00
    6.6083     23.35     26.03    -28.50     24.00
    6.6185     24.07     26.04    -27.79     24.00
    6.6286     23.62     26.04    -28.24     24.00
    6.6388     24.23     26.05    -27.64     24.00
    6.6489     23.67     26.06    -28.21     24.00
    6.6591     23.75     26.07    -28.14     24.00
    6.6693     23.15     26.07    -28.74     24.00
    6.6794     23.34     26.08    -28.56     24.00
    6.6896     23.30     26.09    -28.61     24.00
    6.6998     23.34     26.10    -28.58     24.00
    6.7099     23.66     26.11    -28.27     24.00
    6.7201     23.75     26.11    -28.18     24.00
    6.7303     23.73     26.12    -28.21     24.00
    6.7404     24.12     26.13    -27.83     24.00
    6.7506     23.84     26.14    -28.12     24.00
    6.7608     23.84     26.14    -28.12     24.00
    6.7709     23.76     26.15    -28.21     24.00
    6.7811     24.15     26.16    -27.83     24.00
    6.7913     23.82     26.17    -28.17     24.00
    6.8014     24.76     26.18    -27.24     24.00
    6.8116     24.29     26.19    -27.72     24.00
    6.8217     23.79     26.19    -28.22     24.00
    6.8319     23.65     26.20    -28.37     24.00
    6.8421     24.41     26.21    -27.62     24.00
    6.8522     25.16     26.22    -26.88     24.00
    6.8624     23.97     26.23    -28.08     24.00
    6.8726     23.59     26.23    -28.46     24.00
    6.8827     24.02     26.24    -28.04     24.00
    6.8929     24.29     26.25    -27.78     24.00
    6.9031     24.51     26.26    -27.57     24.00
    6.9132     24.98     26.27    -27.11     24.00
    6.9234     24.83     26.28    -27.27     24.00
    6.9336     24.60     26.29    -27.51     24.00
    6.9437     24.85     26.29    -27.26     24.00
    6.9539     24.39     26.30    -27.73     24.00
    6.9640     23.88     26.31    -28.25     24.00
    6.9742     24.49     26.32    -27.65     24.00
    6.9844     25.18     26.33    -26.97     24.00
    6.9945     24.48     26.34    -27.68     24.00
    7.0047     25.18     26.35    -26.99     24.00
    7.0149     24.22     26.36    -27.96     24.00
    7.0250     24.59     26.36    -27.59     24.00
    7.0352     25.42     26.37    -26.77     24.00
    7.0454     25.48     26.38    -26.72     24.00
    7.0555     24.27     26.39    -27.94     24.00
    7.0657     25.16     26.40    -27.06     24.00
    7.0759     24.56     26.41    -27.67     24.00
    7.0860     24.74     26.42    -27.50     24.00
    7.0962     24.52     26.43    -27.73     24.00
    7.1064     25.32     26.44    -26.94     24.00
    7.1165     25.13     26.45    -27.14     24.00
    7.1267     24.91     26.46    -27.37     24.00
    7.1368     25.29     26.47    -27.00     24.00
    7.1470     25.29     26.48    -27.01     24.00
    7.1572     25.75     26.49    -26.56     24.00
    7.1673     25.55     26.49    -26.76     24.00
    7.1775     25.38     26.50    -26.94     24.00
    7.1877     26.37     26.51    -25.96     24.00
    7.1978     25.45     26.52    -26.89     24.00
    7.2080     25.33     26.53    -27.02     24.00
    7.2182     25.78     26.54    -26.58     24.00
    7.2283     25.13     26.55    -27.24     24.00
    7.2385     25.74     26.56    -26.64     24.00
    7.2487     26.26     26.57    -26.13     24.00
    7.2588     26.50     26.58    -25.90     24.00
    7.2690     25.13     26.59    -27.28     24.00
    7.2791     26.19     26.60    -26.23     24.00
    7.2893     25.47     26.61    -26.96     24.00
    7.2995     26.55     26.62    -25.89     24.00
    7.3096     26.26     26.63    -26.19     24.00
    7.3198     26.24     26.64    -26.22     24.00
    7.3300     25.84     26.65    -26.63     24.00
    7.3401     25.95     26.66    -26.53     24.00
    7.3503     26.34     26.67    -26.15     24.00
    7.3605     25.79     26.68    -26.71     24.00
    7.3706     25.82     26.70    -26.70     24.00
    7.3808     26.34     26.71    -26.19     24.00
    7.3910     26.18     26.72    -26.36     24.00
    7.4011     26.37     26.73    -26.18     24.00
    7.4113     25.47     26.74    -27.09     24.00
    7.4215     25.85     26.75    -26.72     24.00
    7.4316     26.73     26.76    -25.85     24.00
    7.4418     26.33     26.77    -26.26     24.00
    7.4519     25.41     26.78    -27.19     24.00
    7.4621     25.96     26.79    -26.65     24.00
    7.4723     26.24     26.80    -26.38     24.00
    7.4824     26.92     26.81    -25.71     24.00
    7.4926     26.48     26.82    -26.16     24.00
    7.5028     25.96     26.84    -26.70     24.00
    7.5129     26.09     26.85    -26.58     24.00
    7.5231     25.96     26.86    -26.72     24.00
    7.5333     26.07     26.87    -26.62     24.00
    7.5434     25.91     26.88    -26.79     24.00
    7.5536     25.82     26.89    -26.89     24.00
    7.5638     25.70     26.90    -27.02     24.00
    7.5739     26.60     26.91    -26.13     24.00
    7.5841     26.37     26.93    -26.38     24.00
    7.5942     26.47     26.94    -26.29     24.00
    7.6044     25.98     26.95    -26.79     24.00
    7.6146     27.14     26.96    -25.64     24.00
    7.6247     26.51     26.97    -26.28     24.00
    7.6349     26.20     26.98    -26.60     24.00
    7.6451     27.02     27.00    -25.80     24.00
    7.6552     26.40     27.01    -26.43     24.00
    7.6654     27.17     27.02    -25.67     24.00
    7.6756     27.91     27.03    -24.94     24.00
    7.6857     27.36     27.04    -25.50     24.00
    7.6959     27.63     27.06    -25.25     24.00
    7.7061     27.17     27.07    -25.72     24.00
    7.7162     26.55     27.08    -26.35     24.00
    7.7264     26.98     27.09    -25.93     24.00
    7.7365     25.91     27.11    -27.02     24.00
    7.7467     26.50     27.12    -26.44     24.00
    7.7569     26.87     27.13    -26.08     24.00
    7.7670     27.30     27.14    -25.66     24.00
    7.7772     26.96     27.15    -26.01     24.00
    7.7874     27.61     27.17    -25.38     24.00
    7.7975     27.66     27.18    -25.34     24.00
    7.8077     26.91     27.19    -26.10     24.00
    7.8179     27.96     27.21    -25.07     24.00
    7.8280     26.82     27.22    -26.22     24.00
    7.8382     27.65     27.23    -25.40     24.00
    7.8484     26.63     27.24    -26.43     24.00
    7.8585     27.82     27.26    -25.26     24.00
    7.8687     27.33     27.27    -25.76     24.00
    7.8789     26.87     27.28    -26.23     24.00
    7.8890     27.51     27.30    -25.61     24.00
    7.8992     27.72     27.31    -25.41     24.00
    7.9093     26.87     27.32    -26.27     24.00
    7.9195     27.28     27.34    -25.88     24.00
    7.9297     28.19     27.35    -24.98     24.00
    7.9398     27.24     27.36    -25.94     24.00
    7.9500     27.92     27.38    -25.28     24.00
    7.9602     27.65     27.39    -25.56     24.00
    7.9703     28.19     27.40    -25.03     24.00
    7.9805     27.15     27.42    -26.09     24.00
    7.9907     28.32     27.43    -24.93     24.00
    8.0008     27.53     27.44    -25.73     24.00
    8.0110     28.05     27.46    -25.23     24.00
    8.0212     27.74     27.47    -25.55     24.00
    8.0313     27.46     27.49    -25.85     24.00
    8.0415     28.71     27.50    -24.61     24.00
    8.0516     27.37     27.51    -25.96     24.00
    8.0618     27.80     27.53    -25.55     24.00
    8.0720     27.97     27.54    -25.39     24.00
    8.0821     28.28     27.56    -25.10     24.00
    8.0923     28.41     27.57    -24.98     24.00
    8.1025     27.93     27.59    -25.48     24.00
    8.1126     28.49     27.60    -24.93     24.00
    8.1228     28.10     27.61    -25.33     24.00
    8.1330     28.63     27.63    -24.82     24.00
    8.1431     27.45     27.64    -26.01     24.00
    8.1533     27.60     27.66    -25.88     24.00
    8.1635     28.07     27.67    -25.42     24.00
    8.1736     29.21     27.69    -24.30     24.00
    8.1838     28.88     27.70    -24.64     24.00
    8.1940     28.73     27.72    -24.81     24.00
    8.2041     28.64     27.73    -24.91     24.00
    8.2143     28.01     27.75    -25.56     24.00
    8.2244     28.95     27.76    -24.63     24.00
    8.2346     28.80     27.78    -24.80     24.00
    8.2448     28.21     27.79    -25.40     24.00
    8.2549     28.90     27.81    -24.73     24.00
    8.2651     28.99     27.82    -24.65     24.00
    8.2753     28.97     27.84    -24.69     24.00
    8.2854     28.52     27.85    -25.15     24.00
    8.2956     28.13     27.87    -25.56     24.00
    8.3058     28.41     27.89    -25.30     24.00
    8.3159     29.34     27.90    -24.38     24.00
    8.3261     29.21     27.92    -24.53     24.00
    8.3363     29.16     27.93    -24.59     24.00
    8.3464     27.98     27.95    -25.79     24.00
    8.3566     29.16     27.97    -24.63     24.00
    8.3667     29.13     27.98    -24.67     24.00
    8.3769     28.64     28.00    -25.18     24.00
    8.3871     29.84     28.01    -23.99     24.00
    8.3972     28.73     28.03    -25.12     24.00
    8.4074     29.10     28.05    -24.77     24.00
    8.4176     29.40     28.06    -24.48     24.00
    8.4277     28.96     28.08    -24.94     24.00
    8.4379     29.07     28.10    -24.85     24.00
    8.4481     29.63     28.11    -24.30     24.00
    8.4582     28.38     28.13    -25.57     24.00
    8.4684     29.21     28.15    -24.76     24.00
    8.4786     29.99     28.16    -23.99     24.00
    8.4887     29.02     28.18    -24.98     24.00
    8.4989     29.26     28.20    -24.76     24.00
    8.5091     29.65     28.21    -24.38     24.00
    8.5192     29.74     28.23    -24.31     24.00
    8.5294     29.16     28.25    -24.91     24.00
    8.5395     29.32     28.26    -24.76     24.00
    8.5497     29.31     28.28    -24.79     24.00
    8.5599     29.62     28.30    -24.50     24.00
    8.5700     29.89     28.32    -24.25     24.00
    8.5802     30.41     28.33    -23.74     24.00
    8.5904     29.04     28.35    -25.13     24.00
    8.6005     29.74     28.37    -24.45     24.00
    8.6107     29.46     28.39    -24.75     24.00
    8.6209     29.56     28.41    -24.67     24.00
    8.6310     29.91     28.42    -24.33     24.00
    8.6412     29.35     28.44    -24.91     24.00
    8.6514     29.65     28.46    -24.63     24.00
    8.6615     30.30     28.48    -24.00     24.00
    8.6717     29.85     28.50    -24.47     24.00
    8.6818     29.79     28.51    -24.54     24.00
    8.6920     30.74     28.53    -23.61     24.00
    8.7022     29.70     28.55    -24.67     24.00
    8.7123     30.07     28.57    -24.32     24.00
    8.7225     29.10     28.59    -25.31     24.00
    8.7327     28.86     28.61    -25.57     24.00
    8.7428     30.23     28.62    -24.21     24.00
    8.7530     30.04     28.64    -24.42     24.00
    8.7632     29.54     28.66    -24.94     24.00
    8.7733     30.84     28.68    -23.66     24.00
    8.7835     30.46     28.70    -24.06     24.00
    8.7937     30.18     28.72    -24.36     24.00
    8.8038     30.51     28.74    -24.05     24.00
    8.8140     30.36     28.76    -24.22     24.00
    8.8242     30.01     28.78    -24.59     24.00
    8.8343     29.65     28.80    -24.97     24.00
    8.8445     30.49     28.82    -24.15     24.00
    8.8546     30.46     28.83    -24.19     24.00
    8.8648     30.08     28.85    -24.59     24.00
    8.8750     31.06     28.87    -23.63     24.00
    8.8851     30.39     28.89    -24.32     24.00
    8.8953     30.63     28.91    -24.10     24.00
    8.9055     29.84     28.93    -24.91     24.00
    8.9156     30.21     28.95    -24.56     24.00
    8.9258     30.51     28.97    -24.28     24.00
    8.9360     29.82     28.99    -24.99     24.00
    8.9461     30.36     29.01    -24.47     24.00
    8.9563     30.63     29.03    -24.22     24.00
    8.9665     31.11     29.05    -23.76     24.00
    8.9766     30.71     29.08    -24.19     24.00
    8.9868     31.18     29.10    -23.74     24.00
    8.9969     30.87     29.12    -24.07     24.00
    9.0071     30.83     29.14    -24.13     24.00
    9.0173     31.07     29.16    -23.91     24.00
    9.0274     30.37     29.18    -24.63     24.00
    9.0376     30.21     29.20    -24.81     24.00
    9.0478     30.94     29.22    -24.10     24.00
    9.0579     31.22     29.24    -23.84     24.00
    9.0681     30.82     29.26    -24.26     24.00
    9.0783     31.32     29.28    -23.78     24.00
    9.0884     30.59     29.31    -24.54     24.00
    9.0986     31.74     29.33    -23.41     24.00
    9.1088     32.55     29.35    -22.62     24.00
    9.1189     31.62     29.37    -23.57     24.00
    9.1291     31.30     29.39    -23.91     24.00
    9.1393     31.38     29.41    -23.85     24.00
    9.1494     31.66     29.44    -23.60     24.00
    9.1596     31.13     29.46    -24.15     24.00
    9.1697     30.68     29.48    -24.62     24.00
    9.1799     31.53     29.50    -23.79     24.00
    9.1901     30.44     29.52    -24.90     24.00
    9.2002     30.61     29.55    -24.76     24.00
    9.2104     31.57     29.57    -23.82     24.00
    9.2206     31.66     29.59    -23.75     24.00
    9.2307     31.57     29.61    -23.86     24.00
    9.2409     31.29     29.64    -24.17     24.00
    9.2511     30.70     29.66    -24.78     24.00
    9.2612     31.38     29.68    -24.12     24.00
    9.2714     32.03     29.70    -23.49     24.00
    9.2816     31.35     29.73    -24.20     24.00
    9.2917     31.37     29.75    -24.20     24.00
    9.3019     31.92     29.77    -23.67     24.00
    9.3120     31.49     29.80    -24.13     24.00
    9.3222     31.41     29.82    -24.23     24.00
    9.3324     32.26     29.84    -23.40     24.00
    9.3425     30.92     29.87    -24.77     24.00
    9.3527     31.80     29.89    -23.91     24.00
    9.3629     31.51     29.91    -24.22     24.00
    9.3730     31.26     29.94    -24.50     24.00
    9.3832     32.55     29.96    -23.23     24.00
    9.3934     32.20     29.99    -23.61     24.00
    9.4035     31.85     30.01    -23.98     24.00
    9.4137     31.48     30.03    -24.37     24.00
    9.4239     31.23     30.06    -24.65     24.00
    9.4340     31.69     30.08    -24.21     24.00
    9.4442     31.84     30.11    -24.09     24.00
    9.4544     31.70     30.13    -24.25     24.00
    9.4645     32.38     30.16    -23.60     24.00
    9.4747     32.37     30.18    -23.63     24.00
    9.4848     32.42     30.21    -23.61     24.00
    9.4950     32.28     30.23    -23.77     24.00
    9.5052     32.68     30.26    -23.40     24.00
    9.5153     32.09     30.28    -24.01     24.00
    9.5255     32.36     30.31    -23.77     24.00
    9.5357     32.55     30.33    -23.60     24.00
    9.5458     32.80     30.36    -23.38     24.00
    9.5560     32.85     30.38    -23.35     24.00
    9.5662     32.44     30.41    -23.79     24.00
    9.5763     32.59     30.43    -23.66     24.00
    9.5865     31.60     30.46    -24.68     24.00
    9.5967     31.74     30.48    -24.56     24.00
    9.6068     32.89     30.51    -23.44     24.00
    9.6170     32.34     30.54    -24.02     24.00
    9.6271     32.00     30.56    -24.38     24.00
    9.6373     32.92     30.59    -23.49     24.00
    9.6475     32.78     30.61    -23.65     24.00
    9.6576     32.41     30.64    -24.05     24.00
    9.6678     32.13     30.67    -24.36     24.00
    9.6780     32.50     30.69    -24.01     24.00
    9.6881     32.74     30.72    -23.80     24.00
    9.6983     32.56     30.75    -24.01     24.00
    9.7085     33.34     30.77    -23.25     24.00
    9.7186     33.48     30.80    -23.14     24.00
    9.7288     31.98     30.83    -24.67     24.00
    9.7390     32.43     30.86    -24.25     24.00
    9.7491     33.10     30.88    -23.60     24.00
    9.7593     32.98     30.91    -23.75     24.00
    9.7694     32.12     30.94    -24.64     24.00
    9.7796     33.10     30.96    -23.68     24.00
    9.7898     32.09     30.99    -24.72     24.00
    9.7999     32.35     31.02    -24.49     24.00
    9.8101     32.86     31.05    -24.01     24.00
    9.8203     33.16     31.08    -23.74     24.00
    9.8304     33.52     31.10    -23.40     24.00
    9.8406     33.34     31.13    -23.61     24.00
    9.8508     32.74     31.16    -24.24     24.00
    9.8609     33.45     31.19    -23.56     24.00
    9.8711     32.84     31.22    -24.20     24.00
    9.8813     33.23     31.25    -23.84     24.00
    9.8914     33.01     31.27    -24.08     24.00
    9.9016     33.07     31.30    -24.05     24.00
    9.9118     32.99     31.33    -24.16     24.00
    9.9219     32.65     31.36    -24.53     24.00
    9.9321     33.00     31.39    -24.21     24.00
    9.9422     32.74     31.42    -24.50     24.00
    9.9524     32.93     31.45    -24.34     24.00
    9.9626     33.30     31.48    -24.00     24.00
    9.9727     33.73     31.51    -23.60     24.00
    9.9829     32.09     31.54    -25.27     24.00
    9.9931     32.92     31.57    -24.47     24.00
   10.0032     32.76     31.60    -24.66     24.00
   10.0134     32.35     31.63    -25.10     24.00
   10.0236     32.20     31.66    -25.28     24.00
   10.0337     33.45     31.69    -24.06     24.00
   10.0439     32.96     31.72    -24.58     24.00
   10.0541     33.57     31.75    -24.00     24.00
   10.0642     33.30     31.78    -24.30     24.00
   10.0744     34.05     31.81    -23.58     24.00
   10.0845     33.95     31.84    -23.71     24.00
   10.0947     33.44     31.87    -24.25     24.00
   10.1049     34.73     31.90    -22.99     24.00
   10.1150     33.17     31.93    -24.58     24.00
   10.1252     34.08     31.96    -23.70     24.00
   10.1354     32.98     31.99    -24.83     24.00
   10.1455     33.46     32.02    -24.38     24.00
   10.1557     34.11     32.05    -23.76     24.00
   10.1659     32.98     32.09    -24.93     24.00
   10.1760     34.20     32.12    -23.74     24.00
   10.1862     34.45     32.15    -23.52     24.00
   10.1964     33.82     32.18    -24.18     24.00
   10.2065     33.64     32.21    -24.39     24.00
   10.2167     33.45     32.24    -24.61     24.00
   10.2269     34.13     32.28    -23.97     24.00
   10.2370     33.57     32.31    -24.56     24.00
   10.2472     34.06     32.34    -24.10     24.00
   10.2573     33.36     32.37    -24.83     24.00
   10.2675     33.63     32.41    -24.60     24.00
   10.2777     33.63     32.44    -24.63     24.00
   10.2878     33.80     32.47    -24.49     24.00
   10.2980     33.37     32.50    -24.95     24.00
   10.3082     34.37     32.54    -23.99     24.00
   10.3183     34.23     32.57    -24.16     24.00
   10.3285     34.44     32.60    -23.98     24.00
   10.3387     34.20     32.64    -24.26     24.00
   10.3488     34.26     32.67    -24.23     24.00
   10.3590     33.77     32.70    -24.75     24.00
   10.3692     33.77     32.74    -24.79     24.00
   10.3793     34.28     32.77    -24.31     24.00
   10.3895     34.12     32.80    -24.50     24.00
   10.3996     33.08     32.84    -25.58     24.00
   10.4098     33.19     32.87    -25.50     24.00
   10.4200     35.13     32.91    -23.60     24.00
   10.4301     34.01     32.94    -24.75     24.00
   10.4403     34.28     32.97    -24.51     24.00
   10.4505     34.66     33.01    -24.17     24.00
   10.4606     34.41     33.04    -24.45     24.00
   10.4708     34.14     33.08    -24.76     24.00
   10.4810     34.80     33.11    -24.13     24.00
   10.4911     34.66     33.15    -24.31     24.00
   10.5013     34.73     33.18    -24.27     24.00
   10.5115     34.08     33.22    -24.96     24.00
   10.5216     35.04     33.25    -24.03     24.00
   10.5318     34.70     33.29    -24.41     24.00
   10.5420     35.10     33.32    -24.04     24.00
   10.5521     35.17     33.36    -24.01     24.00
   10.5623     35.21     33.40    -24.01     24.00
   10.5724     33.70     33.43    -25.55     24.00
   10.5826     33.93     33.47    -25.36     24.00
   10.5928     34.49     33.50    -24.83     24.00
   10.6029     35.01     33.54    -24.35     24.00
   10.6131     33.96     33.58    -25.44     24.00
   10.6233     34.73     33.61    -24.70     24.00
   10.6334     34.75     33.65    -24.72     24.00
   10.6436     34.66     33.69    -24.85     24.00
   10.6538     34.65     33.72    -24.89     24.00
   10.6639     35.51     33.76    -24.07     24.00
   10.6741     35.30     33.80    -24.32     24.00
   10.6843     35.09     33.83    -24.56     24.00
   10.6944     36.05     33.87    -23.64     24.00
   10.7046     34.50     33.91    -25.23     24.00
   10.7147     35.46     33.94    -24.30     24.00
   10.7249     34.84     33.98    -24.96     24.00
   10.7351     34.67     34.02    -25.17     24.00
   10.7452     35.65     34.06    -24.23     24.00
   10.7554     34.34     34.10    -25.58     24.00
   10.7656     35.60     34.13    -24.35     24.00
   10.7757     34.99     34.17    -25.00     24.00
   10.7859     35.15     34.21    -24.88     24.00
   10.7961     35.34     34.25    -24.73     24.00
   10.8062     36.13     34.29    -23.98     24.00
   10.8164     35.52     34.33    -24.63     24.00
   10.8266     35.23     34.36    -24.95     24.00
   10.8367     35.91     34.40    -24.31     24.00
   10.8469     35.70     34.44    -24.56     24.00
   10.8571     35.75     34.48    -24.55     24.00
   10.8672     35.90     34.52    -24.44     24.00
   10.8774     35.67     34.56    -24.71     24.00
   10.8875     34.34     34.60    -26.08     24.00
   10.8977     35.94     34.64    -24.52     24.00
   10.9079     36.18     34.68    -24.32     24.00
   10.9180     35.52     34.72    -25.02     24.00
   10.9282     35.45     34.76    -25.13     24.00
   10.9384     36.11     34.80    -24.51     24.00
   10.9485     36.03     34.84    -24.63     24.00
   10.9587     36.02     34.88    -24.68     24.00
   10.9689     36.73     34.92    -24.01     24.00
   10.9790     35.43     34.96    -25.35     24.00
   10.9892     36.04     35.00    -24.78     24.00
   10.9994     35.94     35.04    -24.92     24.00
   11.0095     35.67     35.08    -25.23     24.00
   11.0197     35.88     35.12    -25.06     24.00
   11.0298     36.52     35.16    -24.46     24.00
   11.0400     35.59     35.21    -25.44     24.00
   11.0502     36.18     35.25    -24.89     24.00
   11.0603     35.85     35.29    -25.26     24.00
   11.0705     35.82     35.33    -25.33     24.00
   11.0807     36.19     35.37    -25.00     24.00
   11.0908     35.12     35.41    -26.11     24.00
   11.1010     35.86     35.46    -25.42     24.00
   11.1112     36.41     35.50    -24.91     24.00
   11.1213     36.52     35.54    -24.84     24.00
   11.1315     36.65     35.58    -24.75     24.00
   11.1417     35.49     35.62    -25.95     24.00
   11.1518     35.93     35.67    -25.56     24.00
   11.1620     36.29     35.71    -25.24     24.00
   11.1722     36.52     35.75    -25.05     24.00
   11.1823     36.20     35.80    -25.42     24.00
   11.1925     35.19     35.84    -26.47     24.00
   11.2026     35.87     35.88    -25.83     24.00
   11.2128     35.55     35.93    -26.20     24.00
   11.2230     36.71     35.97    -25.08     24.00
   11.2331     36.73     36.01    -25.10     24.00
   11.2433     36.51     36.06    -25.37     24.00
   11.2535     36.83     36.10    -25.09     24.00
   11.2636     36.63     36.14    -25.33     24.00
   11.2738     37.34     36.19    -24.67     24.00
   11.2840     37.45     36.23    -24.60     24.00
   11.2941     36.27     36.28    -25.83     24.00
   11.3043     37.30     36.32    -24.84     24.00
   11.3145     37.63     36.37    -24.56     24.00
   11.3246     36.76     36.41    -25.47     24.00
   11.3348     37.05     36.46    -25.23     24.00
   11.3449     37.62     36.50    -24.70     24.00
   11.3551     37.46     36.54    -24.90     24.00
   11.3653     36.47     36.59    -25.94     24.00
   11.3754     37.36     36.64    -25.10     24.00
   11.3856     38.01     36.68    -24.49     24.00
   11.3958     35.79     36.73    -26.76     24.00
   11.4059     36.96     36.77    -25.63     24.00
   11.4161     36.87     36.82    -25.77     24.00
   11.4263     36.82     36.86    -25.86     24.00
   11.4364     37.04     36.91    -25.69     24.00
   11.4466     36.09     36.96    -26.69     24.00
   11.4568     37.67     37.00    -25.15     24.00
   11.4669     37.79     37.05    -25.08     24.00
   11.4771     36.45     37.10    -26.47     24.00
   11.4873     37.47     37.14    -25.49     24.00
   11.4974     37.47     37.19    -25.54     24.00
   11.5076     38.01     37.24    -25.05     24.00
   11.5177     37.18     37.28    -25.92     24.00
   11.5279     36.99     37.33    -26.16     24.00
   11.5381     36.91     37.38    -26.29     24.00
   11.5482     37.60     37.43    -25.65     24.00
   11.5584     37.32     37.47    -25.97     24.00
   11.5686     37.18     37.52    -26.16     24.00
   11.5787     38.10     37.57    -25.29     24.00
   11.5889     38.13     37.62    -25.31     24.00
   11.5991     37.85     37.67    -25.64     24.00
   11.6092     37.65     37.71    -25.88     24.00
   11.6194     36.92     37.76    -26.66     24.00
   11.6296     38.68     37.81    -24.95     24.00
   11.6397     38.29     37.86    -25.39     24.00
   11.6499     37.15     37.91    -26.58     24.00
   11.6600     37.85     37.96    -25.93     24.00
   11.6702     38.29     38.01    -25.54     24.00
   11.6804     37.59     38.05    -26.28     24.00
   11.6905     37.37     38.10    -26.55     24.00
   11.7007     38.18     38.15    -25.79     24.00
   11.7109     38.14     38.20    -25.88     24.00
   11.7210     37.76     38.25    -26.31     24.00
   11.7312     37.38     38.30    -26.74     24.00
   11.7414     37.60     38.35    -26.57     24.00
   11.7515     39.03     38.40    -25.19     24.00
   11.7617     38.40     38.45    -25.87     24.00
   11.7719     38.75     38.50    -25.57     24.00
   11.7820     38.88     38.55    -25.49     24.00
   11.7922     38.95     38.60    -25.47     24.00
   11.8023     38.77     38.65    -25.70     24.00
   11.8125     37.91     38.71    -26.62     24.00
   11.8227     38.49     38.76    -26.09     24.00
   11.8328     37.97     38.81    -26.66     24.00
   11.8430     38.34     38.86    -26.34     24.00
   11.8532     38.67     38.91    -26.06     24.00
   11.8633     38.56     38.96    -26.22     24.00
   11.8735     38.46     39.01    -26.37     24.00
   11.8837     38.63     39.07    -26.26     24.00
   11.8938     37.96     39.12    -26.98     24.00
   11.9040     39.40     39.17    -25.59     24.00
   11.9142     38.81     39.22    -26.23     24.00
   11.9243     38.77     39.27    -26.32     24.00
   11.9345     38.99     39.33    -26.16     24.00
   11.9447     39.52     39.38    -25.68     24.00
   11.9548     38.02     39.43    -27.23     24.00
   11.9650     39.50     39.48    -25.80     24.00
   11.9751     38.34     39.54    -27.02     24.00
   11.9853     38.13     39.59    -27.28     24.00
   11.9955     39.04     39.64    -26.42     24.00
   12.0056     39.52     39.70    -26.00     24.00
   12.0158     38.82     39.75    -26.75     24.00
   12.0260     39.82     39.80    -25.80     24.00
   12.0361     39.95     39.86    -25.73     24.00
   12.0463     39.71     39.91    -26.02     24.00
   12.0565     38.60     39.96    -27.18     24.00
   12.0666     38.73     40.02    -27.11     24.00
   12.0768     39.21     40.07    -26.68     24.00
   12.0870     38.81     40.13    -27.14     24.00
   12.0971     38.91     40.18    -27.09     24.00
   12.1073     39.68     40.24    -26.38     24.00
   12.1174     38.93     40.29    -27.18     24.00
   12.1276     39.93     40.35    -26.24     24.00
   12.1378     39.14     40.40    -27.08     24.00
   12.1479     40.26     40.46    -26.02     24.00
   12.1581     38.90     40.51    -27.43     24.00
   12.1683     40.27     40.57    -26.12     24.00
   12.1784     40.01     40.62    -26.43     24.00
   12.1886     39.24     40.68    -27.26     24.00
   12.1988     39.48     40.73    -27.07     24.00
   12.2089     39.66     40.79    -26.95     24.00
   12.2191     39.86     40.85    -26.81     24.00
   12.2293     40.41     40.90    -26.31     24.00
   12.2394     39.23     40.96    -27.55     24.00
   12.2496     40.06     41.01    -26.77     24.00
   12.2598     40.78     41.07    -26.11     24.00
   12.2699     40.84     41.13    -26.11     24.00
   12.2801     40.29     41.18    -26.71     24.00
   12.2902     40.45     41.24    -26.61     24.00
   12.3004     40.63     41.30    -26.49     24.00
   12.3106     39.71     41.36    -27.47     24.00
   12.3207     40.22     41.41    -27.01     24.00
   12.3309     41.46     41.47    -25.83     24.00
   12.3411     40.65     41.53    -26.70     24.00
   12.3512     40.63     41.59    -26.78     24.00
   12.3614     40.70     41.64    -26.76     24.00
   12.3716     38.98     41.70    -28.54     24.00
   12.3817     40.28     41.76    -27.30     24.00
   12.3919     41.06     41.82    -26.58     24.00
   12.4021     40.49     41.88    -27.21     24.00
   12.4122     40.94     41.93    -26.81     24.00
   12.4224     41.40     41.99    -26.41     24.00
   12.4325     40.95     42.05    -26.92     24.00
   12.4427     41.07     42.11    -26.86     24.00
   12.4529     39.93     42.17    -28.06     24.00
   12.4630     41.27     42.23    -26.78     24.00
   12.4732     41.42     42.29    -26.69     24.00
   12.4834     41.60     42.35    -26.57     24.00
   12.4935     40.81     42.41    -27.42     24.00
   12.5037     41.05     42.47    -27.24     24.00
   12.5139     41.65     42.53    -26.70     24.00
   12.5240     42.28     42.59    -26.13     24.00
   12.5342     40.24     42.65    -28.23     24.00
   12.5444     41.48     42.71    -27.05     24.00
   12.5545     42.26     42.77    -26.33     24.00
   12.5647     42.10     42.83    -26.55     24.00
   12.5749     42.04     42.89    -26.67     24.00
   12.5850     41.41     42.95    -27.36     24.00
   12.5952     42.27     43.01    -26.56     24.00
   12.6053     41.10     43.07    -27.79     24.00
   12.6155     42.32     43.13    -26.63     24.00
   12.6257     41.41     43.19    -27.60     24.00
   12.6358     42.03     43.25    -27.04     24.00
   12.6460     41.79     43.32    -27.35     24.00
   12.6562     42.43     43.38    -26.77     24.00
   12.6663     41.84     43.44    -27.42     24.00
   12.6765     41.68     43.50    -27.64     24.00
   12.6867     41.85     43.56    -27.53     24.00
   12.6968     43.05     43.63    -26.40     24.00
   12.7070     42.12     43.69    -27.39     24.00
   12.7172     42.45     43.75    -27.12     24.00
   12.7273     42.53     43.81    -27.10     24.00
   12.7375     42.87     43.88    -26.83     24.00
   12.7476     42.30     43.94    -27.46     24.00
   12.7578     42.60     44.00    -27.22     24.00
   12.7680     43.90     44.06    -25.98     24.00
   12.7781     43.16     44.13    -26.79     24.00
   12.7883     42.05     44.19    -27.96     24.00
   12.7985     42.87     44.25    -27.20     24.00
   12.8086     42.37     44.32    -27.77     24.00
   12.8188     43.76     44.38    -26.44     24.00
   12.8290     43.48     44.45    -26.79     24.00
   12.8391     42.59     44.51    -27.74     24.00
   12.8493     42.85     44.57    -27.54     24.00
   12.8595     42.26     44.64    -28.20     24.00
   12.8696     43.16     44.70    -27.36     24.00
   12.8798     43.59     44.77    -27.00     24.00
   12.8900     42.76     44.83    -27.89     24.00
   12.9001     43.20     44.90    -27.52     24.00
   12.9103     43.52     44.96    -27.26     24.00
   12.9204     43.94     45.03    -26.91     24.00
   12.9306     44.19     45.09    -26.72     24.00
   12.9408     43.84     45.16    -27.14     24.00
   12.9509     44.13     45.22    -26.91     24.00
   12.9611     44.55     45.29    -26.56     24.00
   12.9713     43.29     45.35    -27.88     24.00
   12.9814     43.40     45.42    -27.84     24.00
   12.9916     43.44     45.48    -27.86     24.00
   13.0018     44.34     45.55    -27.03     24.00
   13.0119     45.90     45.62    -25.54     24.00
   13.0221     43.84     45.68    -27.66     24.00
   13.0323     44.10     45.75    -27.47     24.00
   13.0424     44.41     45.82    -27.23     24.00
   13.0526     42.81     45.88    -28.89     24.00
   13.0627     44.79     45.95    -26.98     24.00
   13.0729     44.15     46.02    -27.69     24.00
   13.0831     43.81     46.08    -28.09     24.00
   13.0932     44.62     46.15    -27.35     24.00
   13.1034     44.35     46.22    -27.69     24.00
   13.1136     44.85     46.29    -27.26     24.00
   13.1237     43.54     46.35    -28.63     24.00
   13.1339     45.40     46.42    -26.84     24.00
   13.1441     44.36     46.49    -27.95     24.00
   13.1542     44.54     46.56    -27.84     24.00
   13.1644     44.95     46.62    -27.49     24.00
   13.1746     44.95     46.69    -27.56     24.00
   13.1847     45.54     46.76    -27.04     24.00
   13.1949     45.91     46.83    -26.74     24.00
   13.2051     45.16     46.90    -27.56     24.00
   13.2152     44.79     46.97    -28.00     24.00
   13.2254     44.50     47.04    -28.36     24.00
   13.2355     45.16     47.10    -27.76     24.00
   13.2457     45.60     47.17    -27.39     24.00
   13.2559     44.70     47.24    -28.36     24.00
   13.2660     45.56     47.31    -27.57     24.00
   13.2762     45.41     47.38    -27.79     24.00
   13.2864     44.45     47.45    -28.82     24.00
   13.2965     45.73     47.52    -27.61     24.00
   13.3067     45.92     47.59    -27.49     24.00
   13.3169     44.97     47.66    -28.51     24.00
   13.3270     45.81     47.73    -27.74     24.00
   13.3372     45.95     47.80    -27.67     24.00
   13.3474     47.02     47.87    -26.67     24.00
   13.3575     46.34     47.94    -27.42     24.00
   13.3677     46.27     48.01    -27.56     24.00
   13.3778     46.66     48.08    -27.24     24.00
   13.3880     47.12     48.15    -26.85     24.00
   13.3982     48.17     48.23    -25.88     24.00
   13.4083     45.76     48.30    -28.36     24.00
   13.4185     46.73     48.37    -27.46     24.00
   13.4287     46.79     48.44    -27.47     24.00
   13.4388     46.80     48.51    -27.53     24.00
   13.4490     46.76     48.58    -27.64     24.00
   13.4592     47.05     48.66    -27.43     24.00
   13.4693     47.24     48.73    -27.31     24.00
   13.4795     47.52     48.80    -27.10     24.00
   13.4897     47.02     48.87    -27.67     24.00
   13.4998     47.46     48.94    -27.30     24.00
   13.5100     47.91     49.02    -26.93     24.00
   13.5201     48.96     49.09    -25.95     24.00
   13.5303     47.13     49.16    -27.85     24.00
   13.5405     48.60     49.23    -26.45     24.00
   13.5506     48.37     49.31    -26.76     24.00
   13.5608     47.57     49.38    -27.63     24.00
   13.5710     47.77     49.45    -27.50     24.00
   13.5811     48.46     49.53    -26.89     24.00
   13.5913     48.29     49.60    -27.13     24.00
   13.6015     48.52     49.68    -26.98     24.00
   13.6116     48.30     49.75    -27.27     24.00
   13.6218     47.08     49.82    -28.56     24.00
   13.6320     47.33     49.90    -28.39     24.00
   13.6421     48.30     49.97    -27.49     24.00
   13.6523     49.08     50.05    -26.79     24.00
   13.6625     47.93     50.12    -28.01     24.00
   13.6726     50.51     50.20    -25.51     24.00
   13.6828     48.41     50.27    -27.68     24.00
   13.6929     47.87     50.34    -28.29     24.00
   13.7031     50.19     50.42    -26.05     24.00
   13.7133     48.84     50.50    -27.48     24.00
   13.7234     47.89     50.57    -28.50     24.00
   13.7336     50.25     50.65    -26.22     24.00
   13.7438     49.01     50.72    -27.53     24.00
   13.7539     48.55     50.80    -28.07     24.00
   13.7641     50.54     50.87    -26.15     24.00
   13.7743     49.63     50.95    -27.14     24.00
   13.7844     49.80     51.03    -27.05     24.00
   13.7946     50.06     51.10    -26.86     24.00
   13.8048     49.79     51.18    -27.21     24.00
   13.8149     50.09     51.26    -26.99     24.00
   13.8251     49.06     51.33    -28.09     24.00
   13.8352     49.96     51.41    -27.27     24.00
   13.8454     50.02     51.49    -27.29     24.00
   13.8556     50.26     51.57    -27.13     24.00
   13.8657     50.58     51.64    -26.88     24.00
   13.8759     49.98     51.72    -27.56     24.00
   13.8861     51.24     51.80    -26.38     24.00
   13.8962     50.10     51.88    -27.60     24.00
   13.9064     50.35     51.95    -27.42     24.00
   13.9166     50.82     52.03    -27.03     24.00
   13.9267     50.24     52.11    -27.69     24.00
   13.9369     52.05     52.19    -25.96     24.00
   13.9471     50.82     52.27    -27.27     24.00
   13.9572     51.98     52.35    -26.19     24.00
   13.9674     50.41     52.43    -27.84     24.00
   13.9776     52.27     52.51    -26.06     24.00
   13.9877     51.45     52.59    -26.96     24.00
   13.9979     52.10     52.67    -26.39     24.00
   14.0080     51.20     52.74    -27.36     24.00
   14.0182     51.51     52.82    -27.13     24.00
   14.0284     52.63     52.91    -26.10     24.00
   14.0385     51.51     52.98    -27.29     24.00
   14.0487     52.72     53.07    -26.17     24.00
   14.0589     51.83     53.15    -27.14     24.00
   14.0690     53.16     53.23    -25.89     24.00
   14.0792     52.51     53.31    -26.62     24.00
   14.0894     52.48     53.39    -26.73     24.00
   14.0995     53.32     53.47    -25.97     24.00
   14.1097     51.94     53.55    -27.43     24.00
   14.1199     52.52     53.63    -26.93     24.00
   14.1300     53.46     53.72    -26.08     24.00
   14.1402     53.61     53.80    -26.01     24.00
   14.1503     53.63     53.88    -26.07     24.00
   14.1605     51.37     53.96    -28.41     24.00
   14.1707     53.78     54.05    -26.09     24.00
   14.1808     53.71     54.13    -26.24     24.00
   14.1910     53.46     54.21    -26.57     24.00
   14.2012     53.05     54.30    -27.07     24.00
   14.2113     53.78     54.38    -26.42     24.00
   14.2215     52.84     54.46    -27.44     24.00
   14.2317     53.20     54.55    -27.17     24.00
   14.2418     54.32     54.63    -26.13     24.00
   14.2520     53.53     54.72    -27.01     24.00
   14.2622     55.14     54.80    -25.48     24.00
   14.2723     52.46     54.89    -28.25     24.00
   14.2825     54.00     54.97    -26.79     24.00
   14.2927     53.09     55.06    -27.79     24.00
   14.3028     54.55     55.14    -26.41     24.00
   14.3130     55.21     55.23    -25.84     24.00
   14.3231     55.60     55.31    -25.53     24.00
   14.3333     55.19     55.40    -26.03     24.00
   14.3435     55.79     55.49    -25.52     24.00
   14.3536     55.26     55.57    -26.13     24.00
   14.3638     55.08     55.66    -26.40     24.00
   14.3740     55.45     55.75    -26.12     24.00
   14.3841     55.89     55.84    -25.77     24.00
   14.3943     55.00     55.92    -26.74     24.00
   14.4045     55.23     56.01    -26.60     24.00
   14.4146     55.62     56.10    -26.30     24.00
   14.4248     55.97     56.19    -26.04     24.00
   14.4350     57.16     56.28    -24.94     24.00
   14.4451     56.04     56.37    -26.15     24.00
   14.4553     55.28     56.46    -27.00     24.00
   14.4654     56.45     56.55    -25.92     24.00
   14.4756     56.38     56.64    -26.08     24.00
   14.4858     55.95     56.73    -26.60     24.00
   14.4959     57.16     56.82    -25.48     24.00
   14.5061     56.12     56.91    -26.61     24.00
   14.5163     56.98     57.00    -25.84     24.00
   14.5264     56.91     57.09    -26.00     24.00
   14.5366     56.34     57.18    -26.66     24.00
   14.5468     55.37     57.27    -27.72     24.00
   14.5569     56.45     57.37    -26.74     24.00
   14.5671     57.49     57.46    -25.79     24.00
   14.5773     57.18     57.55    -26.19     24.00
   14.5874     57.61     57.65    -25.86     24.00
   14.5976     58.94     57.74    -24.62     24.00
   14.6078     57.23     57.83    -26.42     24.00
   14.6179     58.00     57.93    -25.75     24.00
   14.6281     57.17     58.02    -26.67     24.00
   14.6382     58.27     58.12    -25.67     24.00
   14.6484     57.71     58.21    -26.32     24.00
   14.6586     56.66     58.31    -27.47     24.00
   14.6687     58.42     58.40    -25.80     24.00
   14.6789     59.18     58.50    -25.14     24.00
   14.6891     59.53     58.60    -24.89     24.00
   14.6992     58.01     58.70    -26.51     24.00
   14.7094     58.45     58.79    -26.16     24.00
   14.7196     58.80     58.89    -25.91     24.00
   14.7297     59.11     58.99    -25.70     24.00
   14.7399     59.39     59.09    -25.52     24.00
   14.7501     59.07     59.19    -25.94     24.00
   14.7602     59.74     59.29    -25.37     24.00
   14.7704     60.82     59.39    -24.39     24.00
   14.7805     60.30     59.49    -25.01     24.00
   14.7907     59.82     59.59    -25.59     24.00
   14.8009     61.10     59.69    -24.41     24.00
   14.8110     61.01     59.79    -24.60     24.00
   14.8212     60.47     59.90    -25.25     24.00
   14.8314     61.03     60.00    -24.79     24.00
   14.8415     61.63     60.10    -24.29     24.00
   14.8517     59.93     60.20    -26.09     24.00
   14.8619     60.80     60.31    -25.33     24.00
   14.8720     60.13     60.41    -26.10     24.00
   14.8822     61.77     60.52    -24.57     24.00
   14.8924     62.27     60.62    -24.17     24.00
   14.9025     61.13     60.73    -25.42     24.00
   14.9127     61.08     60.84    -25.58     24.00
   14.9229     62.62     60.94    -24.14     24.00
   14.9330     61.55     61.05    -25.32     24.00
   14.9432     62.41     61.16    -24.57     24.00
   14.9533     62.42     61.27    -24.67     24.00
   14.9635     62.13     61.38    -25.07     24.00
   14.9737     62.32     61.49    -24.99     24.00
   14.9838     63.92     61.60    -23.50     24.00
   14.9940     61.42     61.71    -26.11     24.00
   15.0042     63.57     61.82    -24.07     24.00
   15.0143     63.65     61.93    -24.10     24.00
   15.0245     63.19     62.04    -24.67     24.00
   15.0347     62.99     62.16    -24.99     24.00
   15.0448     62.75     62.27    -25.34     24.00
   15.0550     62.55     62.38    -25.65     24.00
   15.0652     63.84     62.50    -24.48     24.00
   15.0753     64.07     62.61    -24.36     24.00
   15.0855     64.62     62.73    -23.93     24.00
   15.0956     64.77     62.85    -23.90     24.00
   15.1058     65.27     62.97    -23.52     24.00
   15.1160     64.05     63.08    -24.85     24.00
   15.1261     64.77     63.20    -24.25     24.00
   15.1363     64.04     63.32    -25.10     24.00
   15.1465     65.07     63.44    -24.19     24.00
   15.1566     64.22     63.56    -25.16     24.00
   15.1668     64.86     63.68    -24.64     24.00
   15.1770     65.23     63.81    -24.40     24.00
   15.1871     64.74     63.93    -25.01     24.00
   15.1973     66.37     64.05    -23.50     24.00
   15.2075     64.13     64.18    -25.87     24.00
   15.2176     66.02     64.30    -24.10     24.00
   15.2278     66.91     64.43    -23.34     24.00
   15.2380     65.71     64.55    -24.66     24.00
   15.2481     66.21     64.68    -24.29     24.00
   15.2583     65.89     64.81    -24.74     24.00
   15.2684     66.15     64.93    -24.60     24.00
   15.2786     67.04     65.06    -23.84     24.00
   15.2888     67.90     65.19    -23.11     24.00
   15.2989     66.71     65.32    -24.43     24.00
   15.3091     68.56     65.46    -22.72     24.00
   15.3193     66.96     65.59    -24.45     24.00
   15.3294     67.12     65.72    -24.42     24.00
   15.3396     68.26     65.85    -23.41     24.00
   15.3498     66.96     65.99    -24.85     24.00
   15.3599     66.76     66.12    -25.18     24.00
   15.3701     67.77     66.26    -24.31     24.00
   15.3803     67.94     66.40    -24.28     24.00
   15.3904     68.40     66.54    -23.96     24.00
   15.4006     68.29     66.67    -24.20     24.00
   15.4107     69.51     66.81    -23.12     24.00
   15.4209     68.89     66.95    -23.88     24.00
   15.4311     68.53     67.10    -24.39     24.00
   15.4412     68.79     67.24    -24.27     24.00
   15.4514     68.97     67.38    -24.23     24.00
   15.4616     68.56     67.53    -24.79     24.00
   15.4717     70.13     67.67    -23.36     24.00
   15.4819     68.58     67.82    -25.06     24.00
   15.4921     68.44     67.96    -25.34     24.00
   15.5022     70.84     68.11    -23.09     24.00
   15.5124     70.02     68.26    -24.06     24.00
   15.5226     70.51     68.41    -23.72     24.00
   15.5327     70.38     68.56    -24.00     24.00
   15.5429     69.22     68.71    -25.31     24.00
   15.5530     71.23     68.86    -23.45     24.00
   15.5632     71.81     69.01    -23.02     24.00
   15.5734     71.55     69.17    -23.44     24.00
   15.5835     71.07     69.32    -24.07     24.00
   15.5937     71.19     69.48    -24.11     24.00
   15.6039     70.49     69.64    -24.97     24.00
   15.6140     71.26     69.79    -24.35     24.00
   15.6242     72.04     69.95    -23.73     24.00
   15.6344     71.90     70.11    -24.03     24.00
   15.6445     72.16     70.27    -23.93     24.00
   15.6547     72.05     70.44    -24.21     24.00
   15.6649     70.85     70.60    -25.57     24.00
   15.6750     72.78     70.76    -23.80     24.00
   15.6852     73.49     70.93    -23.26     24.00
   15.6954     72.07     71.09    -24.84     24.00
   15.7055     71.66     71.26    -25.42     24.00
   15.7157     74.04     71.43    -23.21     24.00
   15.7258     73.61     71.60    -23.81     24.00
   15.7360     73.46     71.77    -24.13     24.00
   15.7462     73.76     71.94    -24.00     24.00
   15.7563     74.41     72.11    -23.52     24.00
   15.7665     74.06     72.28    -24.04     24.00
   15.7767     74.33     72.46    -23.95     24.00
   15.7868     74.71     72.63    -23.74     24.00
   15.7970     75.16     72.81    -23.47     24.00
   15.8072     75.48     72.99    -23.33     24.00
   15.8173     74.00     73.17    -24.99     24.00
   15.8275     74.43     73.35    -24.74     24.00
   15.8377     76.37     73.53    -22.98     24.00
   15.8478     75.72     73.71    -23.81     24.00
   15.8580     75.56     73.89    -24.15     24.00
   15.8681     76.87     74.07    -23.02     24.00
   15.8783     76.13     74.26    -23.95     24.00
   15.8885     75.66     74.45    -24.61     24.00
   15.8986     77.40     74.63    -23.05     24.00
   15.9088     76.51     74.82    -24.13     24.00
   15.9190     76.26     75.01    -24.57     24.00
   15.9291     76.46     75.20    -24.56     24.00
   15.9393     78.12     75.39    -23.09     24.00
   15.9495     78.01     75.59    -23.40     24.00
   15.9596     78.77     75.78    -22.83     24.00
   15.9698     76.34     75.97    -25.45     24.00
   15.9800     77.74     76.17    -24.25     24.00
   15.9901     78.09     76.37    -24.10     24.00
   16.0003     76.81     76.56    -25.57     24.00
   16.0105     76.66     76.76    -25.92     24.00
   16.0206     78.59     76.96    -24.19     24.00
   16.0308     78.21     77.16    -24.77     24.00
   16.0409     78.24     77.37    -24.95     24.00
   16.0511     78.85     77.57    -24.54     24.00
   16.0613     77.66     77.77    -25.93     24.00
   16.0714     79.62     77.98    -24.18     24.00
   16.0816     79.46     78.19    -24.55     24.00
   16.0918     78.65     78.39    -25.56     24.00
   16.1019     80.43     78.60    -23.99     24.00
   16.1121     79.74     78.81    -24.89     24.00
   16.1223     79.15     79.02    -25.69     24.00
   16.1324     80.38     79.23    -24.67     24.00
   16.1426     79.05     79.45    -26.22     24.00
   16.1528     80.56     79.66    -24.92     24.00
   16.1629     80.52     79.87    -25.17     24.00
   16.1731     81.97     80.09    -23.94     24.00
   16.1832     81.03     80.30    -25.09     24.00
   16.1934     80.04     80.52    -26.30     24.00
   16.2036     83.30     80.74    -23.26     24.00
   16.2137     81.13     80.96    -25.65     24.00
   16.2239     82.24     81.18    -24.76     24.00
   16.2341     81.16     81.40    -26.06     24.00
   16.2442     81.09     81.62    -26.35     24.00
   16.2544     82.07     81.85    -25.60     24.00
   16.2646     83.77     82.07    -24.12     24.00
   16.2747     81.83     82.30    -26.29     24.00
   16.2849     84.84     82.52    -23.50     24.00
   16.2951     83.60     82.75    -24.97     24.00
   16.3052     83.38     82.98    -25.42     24.00
   16.3154     83.21     83.21    -25.82     24.00
   16.3256     84.29     83.44    -24.97     24.00
   16.3357     84.99     83.67    -24.50     24.00
   16.3459     84.37     83.90    -25.35     24.00
   16.3560     83.66     84.13    -26.29     24.00
   16.3662     84.49     84.36    -25.69     24.00
   16.3764     85.82     84.60    -24.60     24.00
   16.3865     86.67     84.83    -23.98     24.00
   16.3967     85.19     85.07    -25.70     24.00
   16.4069     86.09     85.31    -25.04     24.00
   16.4170     86.63     85.54    -24.73     24.00
   16.4272     84.68     85.78    -26.92     24.00
   16.4374     85.56     86.02    -26.28     24.00
   16.4475     85.90     86.26    -26.18     24.00
   16.4577     86.78     86.50    -25.54     24.00
   16.4679     85.91     86.74    -26.65     24.00
   16.4780     87.29     86.98    -25.51     24.00
   16.4882     87.02     87.22    -26.02     24.00
   16.4983     87.15     87.46    -26.13     24.00
   16.5085     88.37     87.71    -25.16     24.00
   16.5187     87.86     87.95    -25.91     24.00
   16.5288     86.73     88.19    -27.28     24.00
   16.5390     89.31     88.44    -24.95     24.00
   16.5492     89.04     88.68    -25.46     24.00
   16.5593     86.97     88.93    -27.78     24.00
   16.5695     88.20     89.18    -26.80     24.00
   16.5797     90.13     89.42    -25.11     24.00
   16.5898     89.48     89.67    -26.01     24.00
   16.6000     88.88     89.92    -26.86     24.00
   16.6102     88.41     90.17    -27.58     24.00
   16.6203     89.07     90.41    -27.16     24.00
   16.6305     91.41     90.66    -25.07     24.00
   16.6407     91.32     90.91    -25.41     24.00
   16.6508     89.02     91.16    -27.96     24.00
   16.6610     92.70     91.41    -24.53     24.00
   16.6711     90.39     91.66    -27.09     24.00
   16.6813     91.09     91.91    -26.64     24.00
   16.6915     91.54     92.16    -26.44     24.00
   16.7016     92.41     92.41    -25.82     24.00
   16.7118     92.47     92.66    -26.01     24.00
   16.7220     91.10     92.92    -27.64     24.00
   16.7321     92.48     93.17    -26.51     24.00
   16.7423     92.79     93.42    -26.45     24.00
   16.7525     93.22     93.67    -26.27     24.00
   16.7626     91.82     93.92    -27.92     24.00
   16.7728     93.78     94.17    -26.21     24.00
   16.7830     93.80     94.43    -26.45     24.00
   16.7931     92.68     94.68    -27.82     24.00
   16.8033     95.54     94.93    -25.21     24.00
   16.8134     94.96     95.18    -26.04     24.00
   16.8236     94.32     95.43    -26.93     24.00
   16.8338     94.73     95.68    -26.77     24.00
   16.8439     95.80     95.93    -25.95     24.00
   16.8541     94.70     96.18    -27.30     24.00
   16.8643     96.54     96.44    -25.72     24.00
   16.8744     95.11     96.68    -27.39     24.00
   16.8846     95.12     96.94    -27.64     24.00
   16.8948     96.07     97.19    -26.94     24.00
   16.9049     96.74     97.43    -26.51     24.00
   16.9151     96.62     97.69    -26.89     24.00
   16.9253     97.71     97.94    -26.05     24.00
   16.9354     97.07     98.18    -26.93     24.00
   16.9456     96.43     98.43    -27.82     24.00
   16.9558     98.51     98.68    -25.99     24.00
   16.9659     99.10     98.93    -25.65     24.00
   16.9761     97.96     99.17    -27.03     24.00
   16.9862     98.03     99.42    -27.21     24.00
   16.9964     99.52     99.67    -25.97     24.00
   17.0066     99.64     99.91    -26.09     24.00
   17.0167     97.95    100.15    -28.02     24.00
   17.0269     99.99    100.40    -26.23     24.00
   17.0371     98.01    100.64    -28.45     24.00
   17.0472     98.21    100.88    -28.49     24.00
   17.0574    102.35    101.13    -24.60     24.00
   17.0676     99.88    101.37    -27.31     24.00
   17.0777    100.76    101.61    -26.67     24.00
   17.0879    100.66    101.85    -27.01     24.00
   17.0981    100.76    102.09    -27.15     24.00
   17.1082    100.59    102.32    -27.55     24.00
   17.1184    100.93    102.56    -27.45     24.00
   17.1285    101.44    102.79    -27.17     24.00
   17.1387    100.90    103.03    -27.95     24.00
   17.1489    101.49    103.27    -27.60     24.00
   17.1590    100.68    103.50    -28.64     24.00
   17.1692    101.96    103.73    -27.59     24.00
   17.1794    103.32    103.96    -26.46     24.00
   17.1895    102.09    104.19    -27.92     24.00
   17.1997    103.79    104.42    -26.45     24.00
   17.2099    103.97    104.65    -26.50     24.00
   17.2200    101.47    104.87    -29.22     24.00
   17.2302    103.38    105.10    -27.54     24.00
   17.2404    104.60    105.32    -26.54     24.00
   17.2505    103.65    105.54    -27.71     24.00
   17.2607    104.45    105.77    -27.14     24.00
   17.2709    104.07    105.99    -27.74     24.00
   17.2810    104.24    106.20    -27.78     24.00
   17.2912    104.18    106.42    -28.06     24.00
   17.3013    104.42    106.64    -28.04     24.00
   17.3115    104.27    106.85    -28.40     24.00
   17.3217    104.73    107.07    -28.16     24.00
   17.3318    105.27    107.28    -27.83     24.00
   17.3420    104.86    107.49    -28.45     24.00
   17.3522    106.71    107.70    -26.81     24.00
   17.3623    105.97    107.91    -27.76     24.00
   17.3725    104.62    108.11    -29.31     24.00
   17.3827    106.01    108.32    -28.13     24.00
   17.3928    107.52    108.52    -26.82     24.00
   17.4030    106.39    108.73    -28.16     24.00
   17.4132    107.65    108.93    -27.10     24.00
   17.4233    106.80    109.13    -28.15     24.00
   17.4335    106.09    109.33    -29.06     24.00
   17.4436    106.31    109.52    -29.03     24.00
   17.4538    109.52    109.72    -26.02     24.00
   17.4640    106.57    109.92    -29.17     24.00
   17.4741    108.20    110.11    -27.73     24.00
   17.4843    108.88    110.30    -27.24     24.00
   17.4945    107.32    110.49    -28.99     24.00
   17.5046    106.96    110.68    -29.54     24.00
   17.5148    109.31    110.87    -27.38     24.00
   17.5250    110.80    111.06    -26.08     24.00
   17.5351    108.67    111.25    -28.40     24.00
   17.5453    110.26    111.44    -27.00     24.00
   17.5555    109.89    111.63    -27.56     24.00
   17.5656    111.32    111.81    -26.31     24.00
   17.5758    112.09    112.00    -25.73     24.00
   17.5859    111.45    112.18    -26.55     24.00
   17.5961    111.16    112.37    -27.03     24.00
   17.6063    111.98    112.56    -26.40     24.00
   17.6164    112.63    112.74    -25.93     24.00
   17.6266    112.73    112.93    -26.02     24.00
   17.6368    113.01    113.12    -25.93     24.00
   17.6469    112.34    113.30    -26.78     24.00
   17.6571    114.48    113.49    -24.83     24.00
   17.6673    113.61    113.68    -25.89     24.00
   17.6774    112.10    113.87    -27.59     24.00
   17.6876    115.26    114.07    -24.63     24.00
   17.6978    115.37    114.26    -24.71     24.00
   17.7079    114.96    114.46    -25.32     24.00
   17.7181    115.54    114.66    -24.94     24.00
   17.7283    115.13    114.86    -25.55     24.00
   17.7384    115.95    115.07    -24.94     24.00
   17.7486    116.82    115.28    -24.28     24.00
   17.7587    116.85    115.49    -24.46     24.00
   17.7689    117.11    115.71    -24.42     24.00
   17.7791    117.05    115.94    -24.71     24.00
   17.7892    116.70    116.17    -25.29     24.00
   17.7994    116.45    116.41    -25.78     24.00
   17.8096    119.12    116.65    -23.35     24.00
   17.8197    118.48    116.90    -24.24     24.00
   17.8299    119.24    117.16    -23.74     24.00
   17.8401    119.33    117.42    -23.91     24.00
   17.8502    121.40    117.70    -22.12     24.00
   17.8604    119.23    117.98    -24.57     24.00
   17.8706    119.88    118.28    -24.22     24.00
   17.8807    121.98    118.58    -22.42     24.00
   17.8909    120.29    118.90    -24.43     24.00
   17.9010    121.34    119.23    -23.71     24.00
   17.9112    123.16    119.58    -22.24     24.00
   17.9214    121.60    119.94    -24.16     24.00
   17.9315    123.18    120.31    -22.95     24.00
   17.9417    125.02    120.70    -21.50     24.00
   17.9519    123.93    121.10    -22.99     24.00
   17.9620    124.56    121.53    -22.79     24.00
   17.9722    123.76    121.97    -24.03     24.00
   17.9824    127.35    122.43    -20.90     24.00
   17.9925    126.21    122.91    -22.52     24.00
   18.0027    127.90    123.42    -21.34     24.00
   18.0129    127.60    123.95    -22.17     24.00
   18.0230    128.30    124.49    -22.01     24.00
   18.0332    128.56    125.07    -22.33     24.00
   18.0434    130.65    125.67    -20.84     24.00
   18.0535    128.70    126.29    -23.41     24.00
   18.0637    129.66    126.95    -23.11     24.00
   18.0738    129.80    127.63    -23.65     24.00
   18.0840    131.41    128.35    -22.76     24.00
   18.0942    133.32    129.09    -21.59     24.00
   18.1043    135.35    129.86    -20.33     24.00
   18.1145    132.87    130.68    -23.63     24.00
   18.1247    135.66    131.52    -21.68     24.00
   18.1348    132.57    132.39    -25.64     24.00
   18.1450    135.09    133.31    -24.04     24.00
   18.1552    136.83    134.26    -23.25     24.00
   18.1653    138.64    135.24    -22.42     24.00
   18.1755    138.91    136.27    -23.18     24.00
   18.1857    140.26    137.34    -22.90     24.00
   18.1958    140.50    138.44    -23.76     24.00
   18.2060    140.49    139.59    -24.92     24.00
   18.2161    143.38    140.77    -23.21     24.00
   18.2263    143.62    142.00    -24.20     24.00
   18.2365    141.32    143.28    -27.78     24.00
   18.2466    146.53    144.59    -23.88     24.00
   18.2568    145.34    145.95    -26.43     24.00
   18.2670    147.55    147.35    -25.62     24.00
   18.2771    149.01    148.79    -25.60     24.00
   18.2873    149.28    150.28    -26.82     24.00
   18.2975    149.35    151.82    -28.29     24.00
   18.3076    151.37    153.38    -27.83     24.00
   18.3178    153.99    155.01    -26.84     24.00
   18.3280    154.21    156.68    -28.29     24.00
   18.3381    155.27    158.37    -28.92     24.00
   18.3483    157.51    160.12    -28.43     24.00
   18.3585    157.94    161.92    -29.80     24.00
   18.3686    161.38    163.73    -28.17     24.00
   18.3788    164.73    165.61    -26.70     24.00
   18.3889    162.31    167.50    -31.01     24.00
   18.3991    167.67    169.45    -27.60     24.00
   18.4093    167.10    171.44    -30.16     24.00
   18.4194    169.04    173.44    -30.22     24.00
   18.4296    172.67    175.49    -28.64     24.00
   18.4398    174.16    177.58    -29.24     24.00
   18.4499    173.59    179.67    -31.90     24.00
   18.4601    176.07    181.81    -31.56     24.00
   18.4703    180.37    183.98    -29.43     24.00
   18.4804    178.40    186.15    -33.57     24.00
   18.4906    185.09    188.36    -29.09     24.00
   18.5008    185.72    190.58    -30.68     24.00
   18.5109    188.32    192.80    -30.30     24.00
   18.5211    191.23    195.06    -29.65     24.00
   18.5312    192.77    197.30    -30.35     24.00
   18.5414    192.77    199.57    -32.62     24.00
   18.5516    197.21    201.85    -30.46     24.00
   18.5617    200.79    204.10    -29.13     24.00
   18.5719    202.81    206.37    -29.38     24.00
   18.5821    206.87    208.63    -27.58     24.00
   18.5922    207.57    210.86    -29.11     24.00
   18.6024    208.25    213.10    -30.67     24.00
   18.6126    211.16    215.32    -29.98     24.00
   18.6227    216.12    217.49    -27.19     24.00
   18.6329    215.76    219.67    -29.73     24.00
   18.6431    221.67    221.81    -25.96     24.00
   18.6532    223.58    223.90    -26.14     24.00
   18.6634    221.95    225.97    -29.84     24.00
   18.6736    227.37    228.00    -26.45     24.00
   18.6837    229.87    229.96    -25.91     24.00
   18.6939    231.28    231.89    -26.43     24.00
   18.7040    236.27    233.75    -23.30     24.00
   18.7142    237.57    235.57    -23.82     24.00
   18.7244    240.75    237.33    -22.40     24.00
   18.7345    240.67    239.01    -24.16     24.00
   18.7447    246.46    240.63    -19.99     24.00
   18.7549    246.25    242.18    -21.75     24.00
   18.7650    248.59    243.64    -20.87     24.00
   18.7752    251.40    245.03    -19.45     24.00
   18.7854    252.73    246.34    -19.43     24.00
   18.7955    255.38    247.55    -17.99     24.00
   18.8057    257.24    248.68    -17.26     24.00
   18.8159    253.27    249.71    -22.26     24.00
   18.8260    258.27    250.64    -18.19     24.00
   18.8362    258.84    251.48    -18.46     24.00
   18.8463    259.90    252.21    -18.13     24.00
   18.8565    262.90    252.85    -15.77     24.00
   18.8667    262.20    253.38    -17.00     24.00
   18.8768    260.04    253.80    -19.58     24.00
   18.8870    260.12    254.12    -19.82     24.00
   18.8972    261.60    254.33    -18.55     24.00
   18.9073    254.94    254.43    -25.31     24.00
   18.9175    260.87    254.42    -19.37     24.00
   18.9277    261.81    254.30    -18.31     24.00
   18.9378    259.09    254.07    -20.80     24.00
   18.9480    260.16    253.74    -19.40     24.00
   18.9582    259.32    253.30    -19.80     24.00
   18.9683    257.26    252.75    -21.31     24.00
   18.9785    258.19    252.10    -19.73     24.00
   18.9887    256.29    251.35    -20.88     24.00
   18.9988    252.57    250.50    -23.75     24.00
   19.0090    252.12    249.55    -23.25     24.00
   19.0191    251.13    248.51    -23.20     24.00
   19.0293    246.59    247.37    -26.60     24.00
   19.0395    248.85    246.14    -23.11     24.00
   19.0496    245.21    244.83    -25.44     24.00
   19.0598    244.36    243.44    -24.90     24.00
   19.0700    241.75    241.96    -26.03     24.00
   19.0801    240.46    240.42    -25.78     24.00
   19.0903    236.41    238.79    -28.20     24.00
   19.1005    235.55    237.10    -27.37     24.00
   19.1106    232.98    235.36    -28.20     24.00
   19.1208    230.05    233.55    -29.32     24.00
   19.1310    225.35    231.67    -32.14     24.00
   19.1411    225.45    229.77    -30.14     24.00
   19.1513    221.99    227.80    -31.63     24.00
   19.1614    221.65    225.80    -29.97     24.00
   19.1716    218.68    223.75    -30.89     24.00
   19.1818    214.75    221.66    -32.73     24.00
   19.1919    214.96    219.56    -30.42     24.00
   19.2021    213.15    217.42    -30.09     24.00
   19.2123    207.67    215.25    -33.40     24.00
   19.2224    206.80    213.08    -32.10     24.00
   19.2326    206.30    210.88    -30.40     24.00
   19.2428    200.26    208.67    -34.23     24.00
   19.2529    199.37    206.47    -32.92     24.00
   19.2631    197.98    204.25    -32.09     24.00
   19.2733    195.70    202.02    -32.14     24.00
   19.2834    193.10    199.83    -32.55     24.00
   19.2936    191.12    197.61    -32.31     24.00
   19.3038    185.69    195.41    -35.54     24.00
   19.3139    187.93    193.25    -31.14     24.00
   19.3241    187.77    191.07    -29.12     24.00
   19.3342    183.23    188.94    -31.53     24.00
   19.3444    182.96    186.81    -29.67     24.00
   19.3546    182.27    184.71    -28.26     24.00
   19.3647    178.43    182.65    -30.04     24.00
   19.3749    176.49    180.60    -29.93     24.00
   19.3851    173.88    178.59    -30.53     24.00
   19.3952    174.95    176.62    -27.49     24.00
   19.4054    173.67    174.68    -26.83     24.00
   19.4156    171.64    172.77    -26.95     24.00
   19.4257    169.43    170.92    -27.31     24.00
   19.4359    168.26    169.09    -26.65     24.00
   19.4461    166.92    167.31    -26.21     24.00
   19.4562    163.80    165.58    -27.60     24.00
   19.4664    162.91    163.89    -26.80     24.00
   19.4765    164.38    162.25    -23.69     24.00
   19.4867    159.52    160.65    -26.95     24.00
   19.4969    162.21    159.09    -22.70     24.00
   19.5070    160.97    157.60    -22.45     24.00
   19.5172    159.83    156.14    -22.13     24.00
   19.5274    155.41    154.73    -25.14     24.00
   19.5375    155.85    153.38    -23.35     24.00
   19.5477    156.38    152.07    -21.51     24.00
   19.5579    155.27    150.80    -21.35     24.00
   19.5680    151.29    149.60    -24.13     24.00
   19.5782    152.58    148.43    -21.67     24.00
   19.5884    153.52    147.32    -19.62     24.00
   19.5985    151.74    146.26    -20.34     24.00
   19.6087    149.82    145.24    -21.24     24.00
   19.6188    148.70    144.27    -21.39     24.00
   19.6290    149.54    143.35    -19.63     24.00
   19.6392    148.76    142.46    -19.52     24.00
   19.6493    147.62    141.64    -19.84     24.00
   19.6595    146.41    140.85    -20.26     24.00
   19.6697    144.49    140.10    -21.43     24.00
   19.6798    147.13    139.40    -18.09     24.00
   19.6900    143.76    138.74    -20.80     24.00
   19.7002    143.49    138.12    -20.45     24.00
   19.7103    144.35    137.54    -19.01     24.00
   19.7205    143.43    137.00    -19.39     24.00
   19.7307    139.73    136.50    -22.59     24.00
   19.7408    140.88    136.03    -20.97     24.00
   19.7510    140.85    135.60    -20.57     24.00
   19.7612    139.52    135.20    -21.50     24.00
   19.7713    140.67    134.84    -19.99     24.00
   19.7815    141.10    134.51    -19.23     24.00
   19.7916    138.51    134.22    -21.53     24.00
   19.8018    139.40    133.95    -20.37     24.00
   19.8120    139.19    133.71    -20.34     24.00
   19.8221    139.05    133.49    -20.26     24.00
   19.8323    137.95    133.31    -21.18     24.00
   19.8425    136.16    133.15    -22.81     24.00
   19.8526    136.00    133.01    -22.83     24.00
   19.8628    136.40    132.90    -22.32     24.00
   19.8730    137.63    132.81    -21.00     24.00
   19.8831    134.98    132.74    -23.58     24.00
   19.8933    135.73    132.69    -22.78     24.00
   19.9035    134.46    132.66    -24.02     24.00
   19.9136    133.20    132.65    -25.27     24.00
   19.9238    135.09    132.66    -23.39     24.00
   19.9339    136.05    132.68    -22.45     24.00
   19.9441    134.89    132.72    -23.65     24.00
   19.9543    134.62    132.77    -23.97     24.00
   19.9644    133.54    132.84    -25.12     24.00
   19.9746    133.82    132.92    -24.92     24.00
   19.9848    134.71    133.01    -24.12     24.00
   19.9949    132.09    133.11    -26.84     24.00
   20.0051    131.87    133.23    -27.18     24.00
   20.0153    133.61    133.35    -25.56     24.00
   20.0254    132.79    133.48    -26.51     24.00
   20.0356    132.18    133.62    -27.26     24.00
   20.0458    133.65    133.77    -25.94     24.00
   20.0559    133.86    133.92    -25.88     24.00
   20.0661    130.84    134.08    -29.06     24.00
   20.0763    132.60    134.25    -27.47     24.00
   20.0864    133.60    134.41    -26.63     24.00
   20.0966    132.93    134.59    -27.48     24.00
   20.1067    133.20    134.77    -27.39     24.00
   20.1169    132.26    134.95    -28.51     24.00
   20.1271    130.39    135.13    -30.56     24.00
   20.1372    132.15    135.32    -28.99     24.00
   20.1474    132.05    135.51    -29.28     24.00
   20.1576    132.27    135.70    -29.25     24.00
   20.1677    130.95    135.89    -30.76     24.00
   20.1779    132.80    136.08    -29.10     24.00
   20.1881    132.11    136.27    -29.98     24.00
   20.1982    132.88    136.46    -29.40     24.00
   20.2084    132.66    136.66    -29.82     24.00
   20.2186    132.34    136.85    -30.33     24.00
   20.2287    132.47    137.03    -30.38     24.00
   20.2389    133.30    137.22    -29.74     24.00
   20.2490    132.12    137.40    -31.10     24.00
   20.2592    133.37    137.58    -30.03     24.00
   20.2694    134.52    137.76    -29.06     24.00
   20.2795    131.46    137.94    -32.30     24.00
   20.2897    132.99    138.11    -30.94     24.00
   20.2999    134.41    138.28    -29.69     24.00
   20.3100    131.05    138.45    -33.22     24.00
   20.3202    132.88    138.61    -31.55     24.00
   20.3304    133.71    138.77    -30.88     24.00
   20.3405    133.76    138.92    -30.98     24.00
   20.3507    132.93    139.07    -31.96     24.00
   20.3609    134.45    139.21    -30.58     24.00
   20.3710    132.74    139.35    -32.43     24.00
   20.3812    136.25    139.48    -29.05     24.00
   20.3914    134.68    139.61    -30.75     24.00
   20.4015    135.41    139.73    -30.14     24.00
   20.4117    136.23    139.85    -29.44     24.00
   20.4218    135.65    139.96    -30.13     24.00
   20.4320    136.24    140.06    -29.64     24.00
   20.4422    137.52    140.16    -28.46     24.00
   20.4523    136.37    140.25    -29.70     24.00
   20.4625    136.83    140.33    -29.32     24.00
   20.4727    137.04    140.41    -29.19     24.00
   20.4828    138.10    140.48    -28.20     24.00
   20.4930    137.39    140.54    -28.97     24.00
   20.5032    137.74    140.60    -28.68     24.00
   20.5133    137.16    140.65    -29.31     24.00
   20.5235    137.40    140.69    -29.11     24.00
   20.5337    137.52    140.73    -29.03     24.00
   20.5438    137.56    140.76    -29.02     24.00
   20.5540    138.24    140.78    -28.36     24.00
   20.5641    138.92    140.79    -27.69     24.00
   20.5743    140.07    140.80    -26.55     24.00
   20.5845    139.13    140.79    -27.48     24.00
   20.5946    141.28    140.78    -25.32     24.00
   20.6048    140.15    140.77    -26.44     24.00
   20.6150    138.87    140.74    -27.69     24.00
   20.6251    140.13    140.71    -26.40     24.00
   20.6353    140.33    140.67    -26.16     24.00
   20.6455    140.68    140.62    -25.76     24.00
   20.6556    141.24    140.56    -25.14     24.00
   20.6658    142.96    140.50    -23.36     24.00
   20.6760    140.27    140.43    -25.98     24.00
   20.6861    141.07    140.35    -25.10     24.00
   20.6963    141.09    140.26    -24.99     24.00
   20.7065    142.32    140.17    -23.67     24.00
   20.7166    141.52    140.07    -24.37     24.00
   20.7268    143.30    139.96    -22.48     24.00
   20.7369    144.01    139.84    -21.65     24.00
   20.7471    141.04    139.72    -24.50     24.00
   20.7573    142.79    139.59    -22.62     24.00
   20.7674    141.55    139.45    -23.72     24.00
   20.7776    142.32    139.30    -22.80     24.00
   20.7878    143.19    139.15    -21.78     24.00
   20.7979    142.35    138.99    -22.46     24.00
   20.8081    144.29    138.82    -20.35     24.00
   20.8183    142.60    138.65    -21.87     24.00
   20.8284    141.86    138.47    -22.43     24.00
   20.8386    143.21    138.28    -20.89     24.00
   20.8488    143.63    138.09    -20.28     24.00
   20.8589    142.26    137.89    -21.45     24.00
   20.8691    145.02    137.69    -18.49     24.00
   20.8792    141.68    137.48    -21.62     24.00
   20.8894    139.21    137.26    -23.87     24.00
   20.8996    140.96    137.04    -21.90     24.00
   20.9097    141.16    136.81    -21.47     24.00
   20.9199    139.91    136.58    -22.49     24.00
   20.9301    141.24    136.34    -20.92     24.00
   20.9402    140.79    136.10    -21.13     24.00
   20.9504    141.22    135.85    -20.45     24.00
   20.9606    140.13    135.60    -21.29     24.00
   20.9707    139.65    135.35    -21.52     24.00
   20.9809    137.73    135.09    -23.18     24.00
   20.9911    139.15    134.82    -21.49     24.00
   21.0012    140.09    134.55    -20.28     24.00
   21.0114    139.61    134.28    -20.49     24.00
   21.0216    138.60    134.01    -21.23     24.00
   21.0317    139.11    133.73    -20.44     24.00
   21.0419    136.57    133.45    -22.70     24.00
   21.0520    138.66    133.17    -20.33     24.00
   21.0622    136.09    132.88    -22.61     24.00
   21.0724    134.90    132.59    -23.51     24.00
   21.0825    135.89    132.30    -22.23     24.00
   21.0927    132.63    132.01    -25.20     24.00
   21.1029    133.43    131.71    -24.10     24.00
   21.1130    134.23    131.42    -23.01     24.00
   21.1232    134.66    131.13    -22.29     24.00
   21.1334    132.98    130.83    -23.67     24.00
   21.1435    132.08    130.53    -24.27     24.00
   21.1537    132.87    130.24    -23.19     24.00
   21.1639    132.94    129.94    -22.82     24.00
   21.1740    133.15    129.64    -22.31     24.00
   21.1842    130.81    129.35    -24.36     24.00
   21.1943    131.38    129.05    -23.49     24.00
   21.2045    129.27    128.76    -25.31     24.00
   21.2147    130.41    128.46    -23.87     24.00
   21.2248    127.52    128.17    -26.47     24.00
   21.2350    129.83    127.88    -23.87     24.00
   21.2452    126.70    127.59    -26.71     24.00
   21.2553    125.98    127.31    -27.15     24.00
   21.2655    128.14    127.03    -24.71     24.00
   21.2757    128.11    126.75    -24.46     24.00
   21.2858    124.90    126.47    -27.39     24.00
   21.2960    125.37    126.20    -26.65     24.00
   21.3062    124.60    125.93    -27.15     24.00
   21.3163    124.12    125.67    -27.37     24.00
   21.3265    124.24    125.40    -26.98     24.00
   21.3366    125.45    125.15    -25.52     24.00
   21.3468    122.58    124.90    -28.14     24.00
   21.3570    123.42    124.65    -27.05     24.00
   21.3671    124.45    124.41    -25.78     24.00
   21.3773    121.41    124.18    -28.59     24.00
   21.3875    121.36    123.95    -28.41     24.00
   21.3976    122.68    123.73    -26.87     24.00
   21.4078    121.57    123.51    -27.76     24.00
   21.4180    122.35    123.30    -26.77     24.00
   21.4281    122.82    123.10    -26.10     24.00
   21.4383    120.21    122.90    -28.51     24.00
   21.4485    120.41    122.71    -28.12     24.00
   21.4586    120.53    122.53    -27.82     24.00
   21.4688    119.55    122.36    -28.63     24.00
   21.4790    118.70    122.20    -29.32     24.00
   21.4891    120.84    122.04    -27.02     24.00
   21.4993    119.33    121.89    -28.38     24.00
   21.5094    120.13    121.76    -27.45     24.00
   21.5196    120.35    121.63    -27.10     24.00
   21.5298    120.39    121.51    -26.94     24.00
   21.5399    120.02    121.40    -27.20     24.00
   21.5501    119.60    121.30    -27.52     24.00
   21.5603    118.43    121.21    -28.60     24.00
   21.5704    119.80    121.13    -27.15     24.00
   21.5806    120.12    121.06    -26.76     24.00
   21.5908    118.92    121.00    -27.90     24.00
   21.6009    118.55    120.95    -28.22     24.00
   21.6111    119.61    120.92    -27.13     24.00
   21.6213    118.79    120.89    -27.92     24.00
   21.6314    117.77    120.88    -28.93     24.00
   21.6416    118.38    120.87    -28.31     24.00
   21.6517    118.63    120.88    -28.07     24.00
   21.6619    119.64    120.90    -27.08     24.00
   21.6721    119.55    120.94    -27.21     24.00
   21.6822    119.24    120.98    -27.56     24.00
   21.6924    119.41    121.04    -27.45     24.00
   21.7026    118.30    121.11    -28.63     24.00
   21.7127    118.04    121.19    -28.97     24.00
   21.7229    119.91    121.28    -27.19     24.00
   21.7331    119.27    121.39    -27.94     24.00
   21.7432    120.63    121.51    -26.70     24.00
   21.7534    120.44    121.64    -27.02     24.00
   21.7636    119.16    121.78    -28.44     24.00
   21.7737    120.88    121.94    -26.88     24.00
   21.7839    122.71    122.11    -25.22     24.00
   21.7941    120.45    122.29    -27.66     24.00
   21.8042    122.06    122.48    -26.24     24.00
   21.8144    122.32    122.69    -26.19     24.00
   21.8245    121.41    122.91    -27.32     24.00
   21.8347    121.98    123.14    -26.98     24.00
   21.8449    124.17    123.39    -25.04     24.00
   21.8550    124.93    123.64    -24.53     24.00
   21.8652    122.74    123.91    -26.99     24.00
   21.8754    124.12    124.20    -25.90     24.00
   21.8855    125.66    124.49    -24.65     24.00
   21.8957    124.11    124.79    -26.50     24.00
   21.9059    124.96    125.11    -25.97     24.00
   21.9160    125.29    125.44    -25.97     24.00
   21.9262    123.88    125.78    -27.72     24.00
   21.9364    125.55    126.13    -26.40     24.00
   21.9465    127.35    126.49    -24.96     24.00
   21.9567    125.20    126.87    -27.49     24.00
   21.9668    129.30    127.25    -23.77     24.00
   21.9770    127.13    127.65    -26.34     24.00
   21.9872    125.69    128.06    -28.19     24.00
   21.9973    127.93    128.47    -26.36     24.00
   22.0075    128.77    128.89    -25.94     24.00
   22.0177    127.31    129.33    -27.84     24.00
   22.0278    128.01    129.77    -27.58     24.00
   22.0380    128.12    130.23    -27.93     24.00
   22.0482    128.23    130.69    -28.28     24.00
   22.0583    129.37    131.15    -27.60     24.00
   22.0685    129.07    131.63    -28.38     24.00
   22.0787    127.27    132.12    -30.67     24.00
   22.0888    129.85    132.60    -28.57     24.00
   22.0990    130.26    133.10    -28.66     24.00
   22.1092    129.99    133.61    -29.44     24.00
   22.1193    132.85    134.12    -27.09     24.00
   22.1295    133.44    134.63    -27.01     24.00
   22.1396    131.16    135.15    -29.81     24.00
   22.1498    135.11    135.67    -26.38     24.00
   22.1600    134.61    136.20    -27.41     24.00
   22.1701    133.82    136.73    -28.73     24.00
   22.1803    135.02    137.27    -28.07     24.00
   22.1905    135.54    137.80    -28.08     24.00
   22.2006    134.67    138.34    -29.49     24.00
   22.2108    136.64    138.88    -28.06     24.00
   22.2210    139.95    139.42    -25.29     24.00
   22.2311    137.52    139.96    -28.26     24.00
   22.2413    139.66    140.50    -26.66     24.00
   22.2515    139.68    141.05    -27.19     24.00
   22.2616    139.95    141.58    -27.45     24.00
   22.2718    143.02    142.12    -24.92     24.00
   22.2819    142.02    142.65    -26.45     24.00
   22.2921    142.29    143.19    -26.72     24.00
   22.3023    143.82    143.72    -25.72     24.00
   22.3124    144.97    144.24    -25.09     24.00
   22.3226    144.18    144.76    -26.40     24.00
   22.3328    146.80    145.27    -24.29     24.00
   22.3429    148.23    145.78    -23.37     24.00
   22.3531    147.19    146.28    -24.91     24.00
   22.3633    148.95    146.78    -23.65     24.00
   22.3734    150.66    147.26    -22.42     24.00
   22.3836    149.09    147.74    -24.47     24.00
   22.3938    151.05    148.21    -22.98     24.00
   22.4039    151.09    148.67    -23.40     24.00
   22.4141    153.03    149.12    -21.91     24.00
   22.4243    154.52    149.56    -20.86     24.00
   22.4344    151.85    149.98    -23.95     24.00
   22.4446    153.03    150.40    -23.19     24.00
   22.4547    155.67    150.80    -20.95     24.00
   22.4649    155.10    151.19    -21.91     24.00
   22.4751    156.06    151.56    -21.32     24.00
   22.4852    155.54    151.92    -22.20     24.00
   22.4954    156.46    152.27    -21.63     24.00
   22.5056    154.44    152.61    -23.99     24.00
   22.5157    158.31    152.92    -20.43     24.00
   22.5259    159.23    153.22    -19.81     24.00
   22.5361    157.18    153.50    -22.14     24.00
   22.5462    159.39    153.77    -20.20     24.00
   22.5564    159.37    154.02    -20.47     24.00
   22.5666    157.28    154.25    -22.79     24.00
   22.5767    158.59    154.46    -21.69     24.00
   22.5869    158.33    154.65    -22.14     24.00
   22.5970    158.04    154.82    -22.60     24.00
   22.6072    158.74    154.97    -22.05     24.00
   22.6174    158.25    155.11    -22.68     24.00
   22.6275    157.93    155.22    -23.11     24.00
   22.6377    160.09    155.31    -21.04     24.00
   22.6479    158.98    155.38    -22.22     24.00
   22.6580    158.78    155.43    -22.47     24.00
   22.6682    159.22    155.45    -22.05     24.00
   22.6784    158.50    155.46    -22.78     24.00
   22.6885    157.98    155.44    -23.28     24.00
   22.6987    159.53    155.40    -21.69     24.00
   22.7089    158.26    155.34    -22.90     24.00
   22.7190    158.42    155.26    -22.66     24.00
   22.7292    157.24    155.15    -23.73     24.00
   22.7394    158.09    155.02    -22.75     24.00
   22.7495    157.10    154.87    -23.59     24.00
   22.7597    159.07    154.70    -21.45     24.00
   22.7698    154.99    154.50    -25.33     24.00
   22.7800    154.64    154.28    -25.46     24.00
   22.7902    154.47    154.04    -25.39     24.00
   22.8003    156.46    153.78    -23.14     24.00
   22.8105    153.70    153.49    -25.61     24.00
   22.8207    154.74    153.18    -24.26     24.00
   22.8308    154.63    152.86    -24.05     24.00
   22.8410    150.87    152.51    -27.46     24.00
   22.8512    153.29    152.13    -24.66     24.00
   22.8613    151.58    151.74    -25.98     24.00
   22.8715    151.34    151.33    -25.81     24.00
   22.8817    150.93    150.89    -25.78     24.00
   22.8918    149.34    150.44    -26.92     24.00
   22.9020    148.25    149.97    -27.54     24.00
   22.9121    147.89    149.48    -27.41     24.00
   22.9223    148.75    148.97    -26.04     24.00
   22.9325    147.37    148.44    -26.89     24.00
   22.9426    146.20    147.89    -27.51     24.00
   22.9528    146.40    147.33    -26.75     24.00
   22.9630    143.74    146.74    -28.82     24.00
   22.9731    144.31    146.15    -27.66     24.00
   22.9833    142.65    145.53    -28.70     24.00
   22.9935    142.93    144.90    -27.79     24.00
   23.0036    143.28    144.26    -26.80     24.00
   23.0138    144.14    143.60    -25.28     24.00
   23.0240    140.42    142.92    -28.32     24.00
   23.0341    139.33    142.23    -28.72     24.00
   23.0443    140.97    141.53    -26.38     24.00
   23.0545    136.79    140.81    -29.84     24.00
   23.0646    135.45    140.09    -30.46     24.00
   23.0748    136.66    139.35    -28.51     24.00
   23.0849    135.52    138.61    -28.91     24.00
   23.0951    133.14    137.85    -30.53     24.00
   23.1053    135.39    137.08    -27.51     24.00
   23.1154    130.44    136.30    -31.68     24.00
   23.1256    134.20    135.52    -27.14     24.00
   23.1358    130.43    134.72    -30.11     24.00
   23.1459    129.35    133.92    -30.39     24.00
   23.1561    127.38    133.11    -31.55     24.00
   23.1663    127.74    132.29    -30.37     24.00
   23.1764    128.01    131.47    -29.28     24.00
   23.1866    126.16    130.64    -30.30     24.00
   23.1968    127.44    129.81    -28.19     24.00
   23.2069    125.60    128.97    -29.19     24.00
   23.2171    123.40    128.13    -30.55     24.00
   23.2272    124.31    127.29    -28.80     24.00
   23.2374    124.51    126.44    -27.75     24.00
   23.2476    122.37    125.59    -29.04     24.00
   23.2577    121.80    124.74    -28.76     24.00
   23.2679    120.10    123.89    -29.61     24.00
   23.2781    120.88    123.03    -27.97     24.00
   23.2882    118.36    122.18    -29.64     24.00
   23.2984    118.06    121.32    -29.08     24.00
   23.3086    118.16    120.47    -28.13     24.00
   23.3187    116.30    119.62    -29.14     24.00
   23.3289    115.35    118.77    -29.24     24.00
   23.3391    113.33    117.91    -30.40     24.00
   23.3492    114.88    117.07    -28.01     24.00
   23.3594    114.12    116.22    -27.92     24.00
   23.3695    114.31    115.39    -26.90     24.00
   23.3797    112.23    114.55    -28.14     24.00
   23.3899    111.32    113.71    -28.21     24.00
   23.4000    111.17    112.88    -27.53     24.00
   23.4102    109.11    112.06    -28.77     24.00
   23.4204    110.27    111.23    -26.78     24.00
   23.4305    108.76    110.42    -27.48     24.00
   23.4407    109.14    109.61    -26.29     24.00
   23.4509    107.82    108.80    -26.80     24.00
   23.4610    106.88    108.01    -26.95     24.00
   23.4712    106.52    107.21    -26.51     24.00
   23.4814    106.45    106.42    -25.79     24.00
   23.4915    105.98    105.65    -25.49     24.00
   23.5017    103.24    104.88    -27.46     24.00
   23.5119    104.15    104.11    -25.78     24.00
   23.5220    103.92    103.36    -25.26     24.00
   23.5322    102.49    102.61    -25.94     24.00
   23.5423    102.37    101.87    -25.32     24.00
   23.5525    101.00    101.13    -25.95     24.00
   23.5627    100.71    100.41    -25.52     24.00
   23.5728    101.19     99.70    -24.33     24.00
   23.5830     98.88     98.99    -25.93     24.00
   23.5932    100.31     98.29    -23.80     24.00
   23.6033     99.01     97.60    -24.41     24.00
   23.6135     98.49     96.92    -24.25     24.00
   23.6237     95.65     96.25    -26.42     24.00
   23.6338     96.01     95.59    -25.40     24.00
   23.6440     97.20     94.94    -23.56     24.00
   23.6542     94.73     94.29    -25.38     24.00
   23.6643     95.52     93.66    -23.96     24.00
   23.6745     93.12     93.04    -25.74     24.00
   23.6846     94.20     92.43    -24.05     24.00
   23.6948     93.61     91.82    -24.03     24.00
   23.7050     93.65     91.22    -23.39     24.00
   23.7151     93.16     90.64    -23.30     24.00
   23.7253     92.88     90.06    -23.00     24.00
   23.7355     92.74     89.50    -22.58     24.00
   23.7456     91.85     88.94    -22.91     24.00
   23.7558     90.95     88.40    -23.27     24.00
   23.7660     91.07     87.86    -22.61     24.00
   23.7761     89.64     87.33    -23.51     24.00
   23.7863     89.57     86.81    -23.06     24.00
   23.7965     88.45     86.30    -23.67     24.00
   23.8066     88.56     85.81    -23.07     24.00
   23.8168     87.80     85.32    -23.34     24.00
   23.8270     86.23     84.84    -24.43     24.00
   23.8371     88.26     84.37    -21.93     24.00
   23.8473     86.33     83.90    -23.39     24.00
   23.8574     87.71     83.46    -21.57     24.00
   23.8676     86.27     83.01    -22.56     24.00
   23.8778     85.41     82.57    -22.98     24.00
   23.8879     86.27     82.15    -21.70     24.00
   23.8981     85.23     81.73    -22.32     24.00
   23.9083     83.73     81.32    -23.41     24.00
   23.9184     83.50     80.93    -23.25     24.00
   23.9286     84.21     80.53    -22.14     24.00
   23.9388     83.13     80.15    -22.84     24.00
   23.9489     82.63     79.77    -22.96     24.00
   23.9591     82.62     79.41    -22.61     24.00
   23.9693     82.66     79.05    -22.21     24.00
   23.9794     81.86     78.70    -22.66     24.00
   23.9896     82.16     78.35    -22.01     24.00
   23.9997     79.88     78.02    -23.96     24.00
   24.0099     80.42     77.69    -23.09     24.00
   24.0201     80.87     77.36    -22.31     24.00
   24.0302     79.46     77.05    -23.41     24.00
   24.0404     79.89     76.74    -22.67     24.00
   24.0506     79.57     76.44    -22.69     24.00
   24.0607     79.66     76.15    -22.31     24.00
   24.0709     78.04     75.86    -23.64     24.00
   24.0811     79.49     75.57    -21.90     24.00
   24.0912     77.32     75.30    -23.80     24.00
   24.1014     78.88     75.03    -21.97     24.00
   24.1116     77.97     74.77    -22.62     24.00
   24.1217     77.88     74.51    -22.45     24.00
   24.1319     76.68     74.26    -23.40     24.00
   24.1421     76.62     74.01    -23.21     24.00
   24.1522     75.51     73.77    -24.08     24.00
   24.1624     76.94     73.53    -22.41     24.00
   24.1725     74.71     73.30    -24.41     24.00
   24.1827     75.43     73.08    -23.47     24.00
   24.1929     75.32     72.86    -23.36     24.00
   24.2030     74.85     72.64    -23.61     24.00
   24.2132     74.05     72.43    -24.20     24.00
   24.2234     75.12     72.22    -22.92     24.00
   24.2335     74.73     72.02    -23.11     24.00
   24.2437     74.70     71.82    -22.94     24.00
   24.2539     72.44     71.63    -25.01     24.00
   24.2640     72.38     71.44    -24.88     24.00
   24.2742     74.25     71.25    -22.82     24.00
   24.2844     72.95     71.07    -23.94     24.00
   24.2945     71.87     70.89    -24.84     24.00
   24.3047     71.70     70.71    -24.83     24.00
   24.3148     70.88     70.54    -25.48     24.00
   24.3250     72.06     70.37    -24.13     24.00
   24.3352     72.90     70.20    -23.12     24.00
   24.3453     71.57     70.04    -24.29     24.00
   24.3555     71.67     69.88    -24.03     24.00
   24.3657     70.29     69.73    -25.26     24.00
   24.3758     71.79     69.57    -23.60     24.00
   24.3860     69.66     69.42    -25.58     24.00
   24.3962     70.75     69.27    -24.34     24.00
   24.4063     69.70     69.13    -25.25     24.00
   24.4165     69.20     68.98    -25.60     24.00
   24.4267     69.85     68.84    -24.81     24.00
   24.4368     68.23     68.70    -26.29     24.00
   24.4470     69.10     68.57    -25.29     24.00
   24.4572     70.32     68.43    -23.93     24.00
   24.4673     69.59     68.30    -24.53     24.00
   24.4775     69.26     68.17    -24.73     24.00
   24.4876     68.26     68.04    -25.60     24.00
   24.4978     67.63     67.91    -26.10     24.00
   24.5080     69.46     67.79    -24.15     24.00
   24.5181     66.48     67.66    -27.00     24.00
   24.5283     67.82     67.54    -25.54     24.00
   24.5385     67.87     67.42    -25.37     24.00
   24.5486     68.18     67.30    -24.94     24.00
   24.5588     66.93     67.18    -26.07     24.00
   24.5690     66.58     67.07    -26.31     24.00
   24.5791     66.84     66.95    -25.93     24.00
   24.5893     66.48     66.84    -26.18     24.00
   24.5995     66.77     66.73    -25.78     24.00
   24.6096     67.90     66.61    -24.53     24.00
   24.6198     66.07     66.50    -26.25     24.00
   24.6299     66.36     66.40    -25.86     24.00
   24.6401     65.99     66.29    -26.12     24.00
   24.6503     64.32     66.18    -27.68     24.00
   24.6604     65.10     66.07    -26.79     24.00
   24.6706     64.73     65.97    -27.06     24.00
   24.6808     64.95     65.86    -26.73     24.00
   24.6909     64.87     65.76    -26.71     24.00
   24.7011     64.14     65.66    -27.34     24.00
   24.7113     64.64     65.56    -26.74     24.00
   24.7214     64.56     65.46    -26.72     24.00
   24.7316     65.16     65.36    -26.02     24.00
   24.7418     63.91     65.26    -27.17     24.00
   24.7519     64.23     65.16    -26.75     24.00
   24.7621     65.15     65.06    -25.73     24.00
   24.7723     63.30     64.96    -27.48     24.00
   24.7824     64.20     64.86    -26.48     24.00
   24.7926     64.00     64.77    -26.59     24.00
   24.8027     63.26     64.67    -27.23     24.00
   24.8129     63.17     64.57    -27.22     24.00
   24.8231     62.90     64.48    -27.40     24.00
   24.8332     63.77     64.38    -26.43     24.00
   24.8434     62.64     64.29    -27.47     24.00
   24.8536     63.05     64.20    -26.97     24.00
   24.8637     62.52     64.10    -27.40     24.00
   24.8739     61.93     64.01    -27.90     24.00
   24.8841     63.09     63.92    -26.65     24.00
   24.8942     62.76     63.82    -26.88     24.00
   24.9044     62.32     63.73    -27.23     24.00
   24.9146     63.22     63.64    -26.24     24.00
   24.9247     61.78     63.55    -27.59     24.00
   24.9349     61.76     63.46    -27.52     24.00
   24.9450     62.30     63.37    -26.89     24.00
   24.9552     61.20     63.28    -27.90     24.00
   24.9654     62.84     63.19    -26.17     24.00
   24.9755     61.98     63.10    -26.94     24.00
   24.9857     60.51     63.01    -28.32     24.00
   24.9959     62.29     62.92    -26.45     24.00
   25.0060     61.01     62.83    -27.64     24.00
   25.0162     61.32     62.74    -27.24     24.00
   25.0264     61.54     62.65    -26.93     24.00
   25.0365     61.49     62.56    -26.89     24.00
   25.0467     60.77     62.47    -27.52     24.00
   25.0569     59.69     62.39    -28.52     24.00
   25.0670     59.38     62.30    -28.74     24.00
   25.0772     61.12     62.21    -26.91     24.00
   25.0874     60.65     62.12    -27.29     24.00
   25.0975     61.10     62.04    -26.76     24.00
   25.1077     60.63     61.95    -27.14     24.00
   25.1178     59.22     61.86    -28.46     24.00
   25.1280     60.41     61.78    -27.19     24.00
   25.1382     60.25     61.69    -27.26     24.00
   25.1483     60.43     61.60    -26.99     24.00
   25.1585     59.67     61.52    -27.67     24.00
   25.1687     60.13     61.43    -27.12     24.00
   25.1788     58.90     61.34    -28.26     24.00
   25.1890     60.04     61.26    -27.04     24.00
   25.1992     60.38     61.17    -26.61     24.00
   25.2093     60.33     61.09    -26.58     24.00
   25.2195     59.40     61.00    -27.42     24.00
   25.2297     59.40     60.92    -27.34     24.00
   25.2398     59.60     60.83    -27.05     24.00
   25.2500     59.38     60.75    -27.19     24.00
   25.2601     58.86     60.66    -27.62     24.00
   25.2703     58.90     60.58    -27.50     24.00
   25.2805     58.92     60.49    -27.39     24.00
   25.2906     59.16     60.41    -27.07     24.00
   25.3008     57.77     60.33    -28.38     24.00
   25.3110     58.95     60.24    -27.11     24.00
   25.3211     58.34     60.16    -27.64     24.00
   25.3313     58.98     60.07    -26.91     24.00
   25.3415     58.13     59.99    -27.68     24.00
   25.3516     57.78     59.91    -27.95     24.00
   25.3618     58.74     59.82    -26.90     24.00
   25.3720     57.84     59.74    -27.72     24.00
   25.3821     58.91     59.66    -26.57     24.00
   25.3923     57.75     59.57    -27.64     24.00
   25.4024     57.69     59.49    -27.62     24.00
   25.4126     58.28     59.41    -26.95     24.00
   25.4228     57.86     59.33    -27.29     24.00
   25.4329     58.36     59.24    -26.70     24.00
   25.4431     57.97     59.16    -27.01     24.00
   25.4533     57.76     59.08    -27.14     24.00
   25.4634     59.05     59.00    -25.77     24.00
   25.4736     58.12     58.92    -26.62     24.00
   25.4838     57.70     58.83    -26.95     24.00
   25.4939     58.07     58.75    -26.50     24.00
   25.5041     58.05     58.67    -26.44     24.00
   25.5143     57.56     58.59    -26.85     24.00
   25.5244     56.59     58.51    -27.74     24.00
   25.5346     57.85     58.43    -26.40     24.00
   25.5448     57.64     58.35    -26.53     24.00
   25.5549     56.78     58.27    -27.31     24.00
   25.5651     57.54     58.19    -26.47     24.00
   25.5752     56.75     58.11    -27.18     24.00
   25.5854     57.16     58.03    -26.69     24.00
   25.5956     57.18     57.95    -26.59     24.00
   25.6057     57.06     57.87    -26.63     24.00
   25.6159     55.65     57.79    -27.96     24.00
   25.6261     57.11     57.71    -26.42     24.00
   25.6362     56.21     57.63    -27.24     24.00
   25.6464     56.99     57.55    -26.38     24.00
   25.6566     56.35     57.47    -26.94     24.00
   25.6667     57.05     57.39    -26.16     24.00
   25.6769     56.49     57.31    -26.64     24.00
   25.6871     56.60     57.23    -26.45     24.00
   25.6972     57.09     57.15    -25.88     24.00
   25.7074     57.02     57.08    -25.88     24.00
   25.7175     57.01     57.00    -25.81     24.00
   25.7277     56.99     56.92    -25.75     24.00
   25.7379     55.66     56.84    -27.00     24.00
   25.7480     56.04     56.76    -26.54     24.00
   25.7582     57.73     56.69    -24.78     24.00
   25.7684     55.34     56.61    -27.09     24.00
   25.7785     56.07     56.53    -26.28     24.00
   25.7887     55.26     56.46    -27.02     24.00
   25.7989     55.63     56.38    -26.57     24.00
   25.8090     57.11     56.30    -25.01     24.00
   25.8192     54.77     56.23    -27.28     24.00
   25.8294     56.18     56.15    -25.79     24.00
   25.8395     55.55     56.08    -26.35     24.00
   25.8497     55.87     56.00    -25.95     24.00
   25.8599     55.49     55.92    -26.25     24.00
   25.8700     56.07     55.85    -25.60     24.00
   25.8802     54.73     55.77    -26.86     24.00
   25.8903     55.31     55.70    -26.21     24.00
   25.9005     56.34     55.62    -25.10     24.00
   25.9107     57.72     55.55    -23.65     24.00
   25.9208     55.81     55.48    -25.49     24.00
   25.9310     55.56     55.40    -25.66     24.00
   25.9412     55.00     55.33    -26.15     24.00
   25.9513     55.68     55.25    -25.39     24.00
   25.9615     54.16     55.18    -26.84     24.00
   25.9717     55.12     55.11    -25.81     24.00
   25.9818     55.44     55.04    -25.42     24.00
   25.9920     54.53     54.96    -26.25     24.00
   26.0022     54.48     54.89    -26.23     24.00
   26.0123     54.83     54.82    -25.81     24.00
   26.0225     55.29     54.75    -25.28     24.00
   26.0326     54.12     54.67    -26.37     24.00
   26.0428     54.32     54.60    -26.10     24.00
   26.0530     54.12     54.53    -26.23     24.00
   26.0631     54.78     54.46    -25.50     24.00
   26.0733     55.12     54.39    -25.09     24.00
   26.0835     54.56     54.32    -25.58     24.00
   26.0936     54.41     54.25    -25.66     24.00
   26.1038     53.49     54.18    -26.51     24.00
   26.1140     54.66     54.11    -25.27     24.00
   26.1241     53.28     54.04    -26.58     24.00
   26.1343     53.84     53.97    -25.95     24.00
   26.1445     53.16     53.90    -26.56     24.00
   26.1546     54.36     53.84    -25.30     24.00
   26.1648     54.46     53.77    -25.13     24.00
   26.1750     53.48     53.70    -26.04     24.00
   26.1851     53.52     53.63    -25.93     24.00
   26.1953     52.67     53.56    -26.71     24.00
   26.2054     53.91     53.50    -25.41     24.00
   26.2156     53.67     53.43    -25.58     24.00
   26.2258     54.45     53.36    -24.73     24.00
   26.2359     53.93     53.30    -25.19     24.00
   26.2461     53.81     53.23    -25.24     24.00
   26.2563     52.27     53.17    -26.72     24.00
   26.2664     54.19     53.10    -24.73     24.00
   26.2766     53.35     53.04    -25.51     24.00
   26.2868     53.32     52.97    -25.47     24.00
   26.2969     53.12     52.91    -25.61     24.00
   26.3071     52.38     52.84    -26.28     24.00
   26.3173     53.13     52.78    -25.47     24.00
   26.3274     53.54     52.72    -25.00     24.00
   26.3376     53.57     52.65    -24.90     24.00
   26.3477     52.14     52.59    -26.27     24.00
   26.3579     52.00     52.53    -26.35     24.00
   26.3681     52.17     52.47    -26.12     24.00
   26.3782     52.89     52.41    -25.34     24.00
   26.3884     51.62     52.35    -26.55     24.00
   26.3986     53.06     52.29    -25.05     24.00
   26.4087     52.60     52.23    -25.45     24.00
   26.4189     52.87     52.17    -25.12     24.00
   26.4291     52.59     52.11    -25.34     24.00
   26.4392     51.46     52.05    -26.41     24.00
   26.4494     52.16     51.99    -25.65     24.00
   26.4596     51.77     51.93    -25.98     24.00
   26.4697     51.16     51.87    -26.53     24.00
   26.4799     51.40     51.81    -26.23     24.00
   26.4901     51.45     51.76    -26.13     24.00
   26.5002     51.52     51.70    -26.00     24.00
   26.5104     52.02     51.64    -25.44     24.00
   26.5205     52.12     51.59    -25.29     24.00
   26.5307     50.81     51.53    -26.54     24.00
   26.5409     51.59     51.48    -25.71     24.00
   26.5510     51.98     51.42    -25.26     24.00
   26.5612     51.65     51.37    -25.54     24.00
   26.5714     50.91     51.32    -26.23     24.00
   26.5815     51.77     51.26    -25.31     24.00
   26.5917     51.54     51.21    -25.49     24.00
   26.6019     51.27     51.16    -25.71     24.00
   26.6120     50.61     51.11    -26.32     24.00
   26.6222     50.73     51.05    -26.14     24.00
   26.6324     52.46     51.00    -24.36     24.00
   26.6425     51.46     50.95    -25.31     24.00
   26.6527     51.03     50.90    -25.69     24.00
   26.6628     50.61     50.85    -26.06     24.00
   26.6730     50.51     50.81    -26.12     24.00
   26.6832     50.29     50.76    -26.29     24.00
   26.6933     51.09     50.71    -25.44     24.00
   26.7035     51.29     50.66    -25.19     24.00
   26.7137     51.76     50.61    -24.67     24.00
   26.7238     50.42     50.57    -25.97     24.00
   26.7340     51.27     50.52    -25.07     24.00
   26.7442     50.05     50.48    -26.25     24.00
   26.7543     49.67     50.43    -26.58     24.00
   26.7645     50.05     50.39    -26.16     24.00
   26.7747     50.48     50.34    -25.68     24.00
   26.7848     49.70     50.30    -26.42     24.00
   26.7950     49.87     50.26    -26.21     24.00
   26.8052     51.00     50.21    -25.03     24.00
   26.8153     50.67     50.17    -25.32     24.00
   26.8255     49.51     50.13    -26.44     24.00
   26.8356     49.84     50.09    -26.07     24.00
   26.8458     50.17     50.05    -25.70     24.00
   26.8560     50.29     50.01    -25.54     24.00
   26.8661     51.17     49.97    -24.62     24.00
   26.8763     51.62     49.93    -24.13     24.00
   26.8865     50.31     49.90    -25.41     24.00
   26.8966     50.46     49.86    -25.22     24.00
   26.9068     50.35     49.82    -25.29     24.00
   26.9170     49.39     49.79    -26.22     24.00
   26.9271     50.38     49.75    -25.19     24.00
   26.9373     49.52     49.72    -26.02     24.00
   26.9475     49.95     49.68    -25.55     24.00
   26.9576     49.41     49.65    -26.06     24.00
   26.9678     50.73     49.62    -24.71     24.00
   26.9779     51.05     49.58    -24.35     24.00
   26.9881     50.37     49.55    -25.00     24.00
   26.9983     50.39     49.52    -24.95     24.00
   27.0084     49.60     49.49    -25.71     24.00
   27.0186     49.02     49.46    -26.26     24.00
   27.0288     50.37     49.43    -24.88     24.00
   27.0389     50.26     49.40    -24.96     24.00
   27.0491     48.93     49.37    -26.26     24.00
   27.0593     49.45     49.35    -25.72     24.00
   27.0694     49.30     49.32    -25.84     24.00
   27.0796     50.29     49.29    -24.82     24.00
   27.0898     49.37     49.27    -25.72     24.00
   27.0999     48.64     49.25    -26.43     24.00
   27.1101     48.21     49.22    -26.83     24.00
   27.1202     49.55     49.20    -25.47     24.00
   27.1304     50.03     49.18    -24.97     24.00
   27.1406     49.23     49.15    -25.74     24.00
   27.1507     49.51     49.13    -25.44     24.00
   27.1609     48.28     49.11    -26.65     24.00
   27.1711     49.63     49.09    -25.28     24.00
   27.1812     50.08     49.07    -24.81     24.00
   27.1914     50.33     49.06    -24.55     24.00
   27.2016     49.18     49.04    -25.68     24.00
   27.2117     48.97     49.02    -25.87     24.00
   27.2219     49.09     49.00    -25.73     24.00
   27.2321     49.90     48.99    -24.91     24.00
   27.2422     48.10     48.97    -26.69     24.00
   27.2524     49.37     48.96    -25.41     24.00
   27.2626     49.16     48.95    -25.61     24.00
   27.2727     49.33     48.94    -25.43     24.00
   27.2829     49.85     48.92    -24.89     24.00
   27.2930     49.19     48.91    -25.54     24.00
   27.3032     49.08     48.90    -25.64     24.00
   27.3134     48.94     48.90    -25.78     24.00
   27.3235     49.34     48.89    -25.37     24.00
   27.3337     49.37     48.88    -25.33     24.00
   27.3439     49.16     48.87    -25.53     24.00
   27.3540     49.33     48.87    -25.36     24.00
   27.3642     49.21     48.86    -25.47     24.00
   27.3744     48.84     48.86    -25.84     24.00
   27.3845     48.83     48.86    -25.85     24.00
   27.3947     49.51     48.86    -25.17     24.00
   27.4049     48.16     48.85    -26.51     24.00
   27.4150     49.32     48.86    -25.36     24.00
   27.4252     49.23     48.86    -25.45     24.00
   27.4353     48.84     48.86    -25.84     24.00
   27.4455     48.80     48.86    -25.88     24.00
   27.4557     49.50     48.87    -25.19     24.00
   27.4658     49.01     48.87    -25.68     24.00
   27.4760     50.32     48.88    -24.38     24.00
   27.4862     48.72     48.89    -25.99     24.00
   27.4963     48.58     48.90    -26.14     24.00
   27.5065     48.93     48.91    -25.80     24.00
   27.5167     50.18     48.92    -24.56     24.00
   27.5268     49.27     48.93    -25.48     24.00
   27.5370     49.30     48.95    -25.47     24.00
   27.5472     48.51     48.96    -26.27     24.00
   27.5573     49.27     48.98    -25.53     24.00
   27.5675     49.45     49.00    -25.37     24.00
   27.5777     49.30     49.02    -25.54     24.00
   27.5878     49.35     49.04    -25.51     24.00
   27.5980     50.05     49.06    -24.83     24.00
   27.6081     49.13     49.09    -25.78     24.00
   27.6183     49.43     49.12    -25.51     24.00
   27.6285     49.89     49.14    -25.07     24.00
   27.6386     49.81     49.18    -25.19     24.00
   27.6488     49.27     49.21    -25.76     24.00
   27.6590     49.82     49.24    -25.24     24.00
   27.6691     50.00     49.28    -25.10     24.00
   27.6793     48.83     49.32    -26.31     24.00
   27.6895     48.84     49.36    -26.34     24.00
   27.6996     49.38     49.40    -25.84     24.00
   27.7098     49.43     49.45    -25.84     24.00
   27.7200     48.90     49.50    -26.42     24.00
   27.7301     50.22     49.55    -25.15     24.00
   27.7403     49.88     49.60    -25.54     24.00
   27.7504     50.01     49.66    -25.47     24.00
   27.7606     49.40     49.72    -26.14     24.00
   27.7708     50.49     49.78    -25.11     24.00
   27.7809     50.20     49.85    -25.47     24.00
   27.7911     49.36     49.92    -26.38     24.00
   27.8013     50.02     49.99    -25.79     24.00
   27.8114     50.50     50.06    -25.38     24.00
   27.8216     50.57     50.14    -25.39     24.00
   27.8318     50.79     50.22    -25.25     24.00
   27.8419     50.64     50.31    -25.49     24.00
   27.8521     50.75     50.40    -25.47     24.00
   27.8623     49.89     50.49    -26.42     24.00
   27.8724     50.80     50.59    -25.61     24.00
   27.8826     50.80     50.69    -25.71     24.00
   27.8928     51.35     50.80    -25.27     24.00
   27.9029     51.62     50.91    -25.11     24.00
   27.9131     50.84     51.02    -26.00     24.00
   27.9232     51.61     51.14    -25.35     24.00
   27.9334     50.62     51.26    -26.46     24.00
   27.9436     52.13     51.39    -25.08     24.00
   27.9537     51.25     51.52    -26.09     24.00
   27.9639     51.33     51.66    -26.15     24.00
   27.9741     52.63     51.80    -24.99     24.00
   27.9842     51.27     51.94    -26.49     24.00
   27.9944     52.12     52.09    -25.79     24.00
   28.0046     52.29     52.25    -25.78     24.00
   28.0147     53.94     52.41    -24.29     24.00
   28.0249     52.52     52.58    -25.88     24.00
   28.0351     53.30     52.75    -25.27     24.00
   28.0452     53.01     52.92    -25.73     24.00
   28.0554     53.61     53.10    -25.31     24.00
   28.0655     52.99     53.29    -26.12     24.00
   28.0757     53.00     53.48    -26.30     24.00
   28.0859     54.48     53.68    -25.02     24.00
   28.0960     53.13     53.88    -26.57     24.00
   28.1062     55.97     54.08    -23.93     24.00
   28.1164     54.21     54.30    -25.91     24.00
   28.1265     54.52     54.51    -25.81     24.00
   28.1367     55.34     54.73    -25.21     24.00
   28.1469     53.76     54.96    -27.02     24.00
   28.1570     55.55     55.19    -25.46     24.00
   28.1672     54.63     55.42    -26.61     24.00
   28.1774     55.94     55.66    -25.54     24.00
   28.1875     57.40     55.91    -24.33     24.00
   28.1977     56.30     56.15    -25.67     24.00
   28.2079     56.89     56.41    -25.34     24.00
   28.2180     55.82     56.66    -26.66     24.00
   28.2282     56.64     56.92    -26.10     24.00
   28.2383     57.48     57.18    -25.52     24.00
   28.2485     57.60     57.45    -25.67     24.00
   28.2587     58.29     57.72    -25.25     24.00
   28.2688     58.68     57.99    -25.13     24.00
   28.2790     58.64     58.26    -25.44     24.00
   28.2892     57.68     58.54    -26.68     24.00
   28.2993     59.86     58.81    -24.77     24.00
   28.3095     58.43     59.09    -26.48     24.00
   28.3197     59.10     59.38    -26.10     24.00
   28.3298     59.10     59.66    -26.38     24.00
   28.3400     59.80     59.94    -25.96     24.00
   28.3502     60.32     60.22    -25.72     24.00
   28.3603     60.80     60.50    -25.52     24.00
   28.3705     61.08     60.78    -25.52     24.00
   28.3806     61.68     61.06    -25.20     24.00
   28.3908     60.69     61.34    -26.47     24.00
   28.4010     61.16     61.62    -26.28     24.00
   28.4111     61.72     61.89    -25.99     24.00
   28.4213     61.93     62.17    -26.06     24.00
   28.4315     62.26     62.44    -26.00     24.00
   28.4416     62.86     62.70    -25.66     24.00
   28.4518     63.15     62.97    -25.64     24.00
   28.4620     61.98     63.23    -27.07     24.00
   28.4721     61.83     63.48    -27.47     24.00
   28.4823     62.54     63.73    -27.01     24.00
   28.4925     62.90     63.97    -26.89     24.00
   28.5026     63.59     64.20    -26.43     24.00
   28.5128     64.63     64.44    -25.63     24.00
   28.5230     65.05     64.66    -25.43     24.00
   28.5331     64.34     64.87    -26.35     24.00
   28.5433     64.65     65.08    -26.25     24.00
   28.5534     64.52     65.28    -26.58     24.00
   28.5636     65.41     65.47    -25.88     24.00
   28.5738     66.57     65.66    -24.91     24.00
   28.5839     65.57     65.83    -26.08     24.00
   28.5941     66.13     65.99    -25.68     24.00
   28.6043     67.10     66.15    -24.87     24.00
   28.6144     66.18     66.29    -25.93     24.00
   28.6246     66.96     66.42    -25.28     24.00
   28.6348     66.12     66.54    -26.24     24.00
   28.6449     66.20     66.65    -26.27     24.00
   28.6551     67.46     66.75    -25.11     24.00
   28.6653     66.80     66.83    -25.85     24.00
   28.6754     66.09     66.91    -26.64     24.00
   28.6856     67.13     66.97    -25.66     24.00
   28.6957     67.14     67.02    -25.70     24.00
   28.7059     67.23     67.06    -25.65     24.00
   28.7161     67.40     67.08    -25.50     24.00
   28.7262     67.92     67.10    -25.00     24.00
   28.7364     67.15     67.10    -25.77     24.00
   28.7466     67.40     67.08    -25.50     24.00
   28.7567     67.32     67.06    -25.56     24.00
   28.7669     66.64     67.02    -26.20     24.00
   28.7771     67.01     66.97    -25.78     24.00
   28.7872     67.28     66.91    -25.45     24.00
   28.7974     66.54     66.84    -26.12     24.00
   28.8076     67.16     66.76    -25.42     24.00
   28.8177     67.13     66.66    -25.35     24.00
   28.8279     67.04     66.55    -25.33     24.00
   28.8381     65.41     66.44    -26.85     24.00
   28.8482     65.96     66.31    -26.17     24.00
   28.8584     65.53     66.17    -26.46     24.00
   28.8685     65.77     66.02    -26.07     24.00
   28.8787     65.99     65.86    -25.69     24.00
   28.8889     65.23     65.70    -26.29     24.00
   28.8990     65.90     65.52    -25.44     24.00
   28.9092     65.31     65.34    -25.85     24.00
   28.9194     64.95     65.15    -26.02     24.00
   28.9295     63.66     64.95    -27.11     24.00
   28.9397     65.08     64.74    -25.48     24.00
   28.9499     65.06     64.53    -25.29     24.00
   28.9600     65.40     64.31    -24.73     24.00
   28.9702     64.89     64.08    -25.01     24.00
   28.9804     62.66     63.85    -27.01     24.00
   28.9905     64.65     63.61    -24.78     24.00
   29.0007     63.85     63.37    -25.34     24.00
   29.0108     62.26     63.13    -26.69     24.00
   29.0210     62.46     62.87    -26.23     24.00
   29.0312     62.30     62.62    -26.14     24.00
   29.0413     62.59     62.37    -25.60     24.00
   29.0515     62.57     62.11    -25.36     24.00
   29.0617     62.88     61.84    -24.78     24.00
   29.0718     61.71     61.58    -25.69     24.00
   29.0820     60.95     61.32    -26.19     24.00
   29.0922     61.83     61.05    -25.04     24.00
   29.1023     61.37     60.78    -25.23     24.00
   29.1125     60.71     60.51    -25.62     24.00
   29.1227     60.99     60.25    -25.08     24.00
   29.1328     59.20     59.98    -26.60     24.00
   29.1430     59.85     59.71    -25.68     24.00
   29.1531     60.77     59.45    -24.50     24.00
   29.1633     59.88     59.18    -25.12     24.00
   29.1735     59.18     58.91    -25.55     24.00
   29.1836     59.71     58.65    -24.76     24.00
   29.1938     58.19     58.39    -26.02     24.00
   29.2040     57.92     58.13    -26.03     24.00
   29.2141     57.86     57.87    -25.83     24.00
   29.2243     58.18     57.62    -25.26     24.00
   29.2345     57.45     57.36    -25.73     24.00
   29.2446     58.16     57.11    -24.77     24.00
   29.2548     56.41     56.86    -26.27     24.00
   29.2650     56.14     56.62    -26.30     24.00
   29.2751     56.05     56.38    -26.15     24.00
   29.2853     55.51     56.14    -26.45     24.00
   29.2955     56.18     55.90    -25.54     24.00
   29.3056     55.73     55.67    -25.76     24.00
   29.3158     55.10     55.44    -26.16     24.00
   29.3259     54.92     55.22    -26.12     24.00
   29.3361     55.79     55.00    -25.03     24.00
   29.3463     54.97     54.78    -25.63     24.00
   29.3564     54.80     54.57    -25.59     24.00
   29.3666     55.44     54.35    -24.73     24.00
   29.3768     53.44     54.15    -26.53     24.00
   29.3869     54.60     53.94    -25.16     24.00
   29.3971     54.13     53.74    -25.43     24.00
   29.4073     52.45     53.55    -26.92     24.00
   29.4174     52.31     53.36    -26.87     24.00
   29.4276     54.09     53.17    -24.90     24.00
   29.4378     52.41     52.98    -26.39     24.00
   29.4479     52.84     52.80    -25.78     24.00
   29.4581     52.29     52.62    -26.15     24.00
   29.4682     52.18     52.45    -26.09     24.00
   29.4784     51.41     52.27    -26.68     24.00
   29.4886     51.74     52.10    -26.18     24.00
   29.4987     51.65     51.94    -26.11     24.00
   29.5089     51.02     51.78    -26.58     24.00
   29.5191     52.50     51.62    -24.94     24.00
   29.5292     51.43     51.46    -25.85     24.00
   29.5394     51.38     51.31    -25.75     24.00
   29.5496     51.38     51.15    -25.59     24.00
   29.5597     49.93     51.01    -26.90     24.00
   29.5699     50.02     50.86    -26.66     24.00
   29.5801     51.13     50.71    -25.40     24.00
   29.5902     49.97     50.57    -26.42     24.00
   29.6004     49.79     50.43    -26.46     24.00
   29.6106     50.41     50.30    -25.71     24.00
   29.6207     50.18     50.16    -25.80     24.00
   29.6309     49.40     50.03    -26.45     24.00
   29.6410     50.83     49.90    -24.89     24.00
   29.6512     48.57     49.77    -27.02     24.00
   29.6614     48.58     49.64    -26.88     24.00
   29.6715     48.68     49.52    -26.66     24.00
   29.6817     48.57     49.39    -26.64     24.00
   29.6919     48.80     49.27    -26.29     24.00
   29.7020     48.54     49.15    -26.43     24.00
   29.7122     47.49     49.02    -27.35     24.00
   29.7224     48.98     48.91    -25.75     24.00
   29.7325     47.96     48.79    -26.65     24.00
   29.7427     47.66     48.67    -26.83     24.00
   29.7529     47.09     48.55    -27.28     24.00
   29.7630     47.55     48.44    -26.71     24.00
   29.7732     47.58     48.32    -26.56     24.00
   29.7833     46.74     48.21    -27.29     24.00
   29.7935     46.97     48.10    -26.95     24.00
   29.8037     47.02     47.98    -26.78     24.00
   29.8138     45.90     47.87    -27.79     24.00
   29.8240     47.85     47.76    -25.73     24.00
   29.8342     46.98     47.65    -26.49     24.00
   29.8443     46.10     47.54    -27.26     24.00
   29.8545     46.23     47.43    -27.02     24.00
   29.8647     46.13     47.32    -27.01     24.00
   29.8748     46.73     47.21    -26.30     24.00
   29.8850     46.01     47.10    -26.91     24.00
   29.8952     44.73     46.99    -28.08     24.00
   29.9053     45.91     46.88    -26.79     24.00
   29.9155     47.10     46.78    -25.50     24.00
   29.9257     45.30     46.67    -27.19     24.00
   29.9358     46.43     46.56    -25.95     24.00
   29.9460     46.81     46.45    -25.46     24.00
   29.9561     45.48     46.34    -26.68     24.00
   29.9663     44.79     46.24    -27.27     24.00
   29.9765     45.40     46.13    -26.55     24.00
   29.9866     44.53     46.02    -27.31     24.00
   29.9968     45.45     45.91    -26.28     24.00
   30.0070     44.93     45.80    -26.69     24.00
   30.0171     45.87     45.70    -25.65     24.00
   30.0273     46.40     45.59    -25.01     24.00
   30.0375     45.12     45.48    -26.18     24.00
   30.0476     44.73     45.37    -26.46     24.00
   30.0578     45.76     45.27    -25.33     24.00
   30.0680     45.88     45.16    -25.10     24.00
   30.0781     45.13     45.05    -25.74     24.00
   30.0883     45.70     44.94    -25.06     24.00
   30.0984     44.80     44.84    -25.86     24.00
   30.1086     44.76     44.73    -25.79     24.00
   30.1188     44.93     44.62    -25.51     24.00
   30.1289     44.19     44.51    -26.14     24.00
   30.1391     44.43     44.40    -25.79     24.00
   30.1493     44.42     44.30    -25.70     24.00
   30.1594     44.95     44.19    -25.06     24.00
   30.1696     43.84     44.08    -26.06     24.00
   30.1798     43.95     43.97    -25.84     24.00
   30.1899     44.90     43.86    -24.78     24.00
   30.2001     43.88     43.76    -25.70     24.00
   30.2103     43.59     43.65    -25.88     24.00
   30.2204     43.62     43.54    -25.74     24.00
   30.2306     43.49     43.43    -25.76     24.00
   30.2408     43.25     43.33    -25.90     24.00
   30.2509     43.62     43.22    -25.42     24.00
   30.2611     43.41     43.11    -25.52     24.00
   30.2712     43.06     43.01    -25.77     24.00
   30.2814     43.79     42.90    -24.93     24.00
   30.2916     42.69     42.79    -25.92     24.00
   30.3017     42.85     42.69    -25.66     24.00
   30.3119     43.11     42.58    -25.29     24.00
   30.3221     42.18     42.47    -26.11     24.00
   30.3322     42.52     42.37    -25.67     24.00
   30.3424     42.81     42.26    -25.27     24.00
   30.3526     42.32     42.15    -25.65     24.00
   30.3627     41.05     42.05    -26.82     24.00
   30.3729     42.47     41.94    -25.29     24.00
   30.3831     43.21     41.84    -24.45     24.00
   30.3932     42.09     41.73    -25.46     24.00
   30.4034     42.67     41.63    -24.78     24.00
   30.4135     41.36     41.53    -25.99     24.00
   30.4237     41.84     41.42    -25.40     24.00
   30.4339     42.20     41.32    -24.94     24.00
   30.4440     41.06     41.22    -25.98     24.00
   30.4542     42.72     41.11    -24.21     24.00
   30.4644     41.40     41.01    -25.43     24.00
   30.4745     41.19     40.91    -25.54     24.00
   30.4847     41.02     40.81    -25.61     24.00
   30.4949     40.62     40.71    -25.91     24.00
   30.5050     40.74     40.61    -25.69     24.00
   30.5152     41.65     40.50    -24.67     24.00
   30.5254     41.11     40.40    -25.11     24.00
   30.5355     40.70     40.31    -25.43     24.00
   30.5457     41.80     40.21    -24.23     24.00
   30.5559     41.07     40.11    -24.86     24.00
   30.5660     40.39     40.01    -25.44     24.00
   30.5762     40.51     39.91    -25.22     24.00
   30.5863     39.78     39.82    -25.86     24.00
   30.5965     40.05     39.72    -25.49     24.00
   30.6067     39.72     39.62    -25.72     24.00
   30.6168     40.46     39.53    -24.89     24.00
   30.6270     39.75     39.43    -25.50     24.00
   30.6372     40.62     39.34    -24.54     24.00
   30.6473     39.93     39.25    -25.14     24.00
   30.6575     39.10     39.15    -25.87     24.00
   30.6677     39.60     39.06    -25.28     24.00
   30.6778     39.20     38.97    -25.59     24.00
   30.6880     39.01     38.88    -25.69     24.00
   30.6982     40.29     38.78    -24.31     24.00
   30.7083     39.68     38.70    -24.84     24.00
   30.7185     38.83     38.61    -25.60     24.00
   30.7286     38.81     38.52    -25.53     24.00
   30.7388     39.03     38.43    -25.22     24.00
   30.7490     38.37     38.34    -25.79     24.00
   30.7591     37.74     38.26    -26.34     24.00
   30.7693     38.59     38.17    -25.40     24.00
   30.7795     37.74     38.08    -26.16     24.00
   30.7896     38.41     38.00    -25.41     24.00
   30.7998     38.70     37.92    -25.04     24.00
   30.8100     37.20     37.83    -26.45     24.00
   30.8201     37.99     37.75    -25.58     24.00
   30.8303     37.84     37.67    -25.65     24.00
   30.8405     36.71     37.59    -26.70     24.00
   30.8506     37.87     37.51    -25.46     24.00
   30.8608     37.99     37.43    -25.26     24.00
   30.8710     36.92     37.35    -26.25     24.00
   30.8811     37.59     37.27    -25.50     24.00
   30.8913     38.12     37.19    -24.89     24.00
   30.9014     37.12     37.12    -25.82     24.00
   30.9116     37.64     37.04    -25.22     24.00
   30.9218     37.57     36.97    -25.22     24.00
   30.9319     37.41     36.89    -25.30     24.00
   30.9421     37.31     36.82    -25.33     24.00
   30.9523     38.23     36.75    -24.34     24.00
   30.9624     36.10     36.67    -26.39     24.00
   30.9726     36.95     36.60    -25.47     24.00
   30.9828     37.86     36.53    -24.49     24.00
   30.9929     36.36     36.46    -25.92     24.00
   31.0031     37.20     36.40    -25.02     24.00
   31.0133     37.21     36.33    -24.94     24.00
   31.0234     36.33     36.26    -25.75     24.00
   31.0336     36.15     36.20    -25.87     24.00
   31.0437     36.75     36.13    -25.20     24.00
   31.0539     36.13     36.07    -25.76     24.00
   31.0641     36.02     36.00    -25.80     24.00
   31.0742     36.16     35.94    -25.60     24.00
   31.0844     36.27     35.88    -25.43     24.00
   31.0946     35.99     35.82    -25.65     24.00
   31.1047     36.56     35.76    -25.02     24.00
   31.1149     35.86     35.70    -25.66     24.00
   31.1251     35.64     35.64    -25.82     24.00
   31.1352     36.18     35.58    -25.22     24.00
   31.1454     35.31     35.53    -26.04     24.00
   31.1556     35.56     35.47    -25.73     24.00
   31.1657     35.72     35.41    -25.51     24.00
   31.1759     36.19     35.36    -24.99     24.00
   31.1860     35.57     35.31    -25.56     24.00
   31.1962     35.48     35.25    -25.59     24.00
   31.2064     35.70     35.20    -25.32     24.00
   31.2165     35.81     35.15    -25.16     24.00
   31.2267     34.82     35.10    -26.10     24.00
   31.2369     34.95     35.05    -25.92     24.00
   31.2470     34.46     35.00    -26.36     24.00
   31.2572     35.66     34.96    -25.12     24.00
   31.2674     35.44     34.91    -25.29     24.00
   31.2775     35.44     34.86    -25.24     24.00
   31.2877     35.25     34.82    -25.39     24.00
   31.2979     34.88     34.78    -25.72     24.00
   31.3080     34.48     34.73    -26.07     24.00
   31.3182     35.66     34.69    -24.85     24.00
   31.3284     35.21     34.65    -25.26     24.00
   31.3385     34.33     34.61    -26.10     24.00
   31.3487     36.27     34.57    -24.12     24.00
   31.3588     34.63     34.53    -25.72     24.00
   31.3690     34.63     34.49    -25.68     24.00
   31.3792     35.49     34.45    -24.78     24.00
   31.3893     34.64     34.41    -25.59     24.00
   31.3995     34.38     34.38    -25.82     24.00
   31.4097     35.00     34.34    -25.16     24.00
   31.4198     33.93     34.31    -26.20     24.00
   31.4300     34.60     34.27    -25.49     24.00
   31.4402     35.22     34.24    -24.84     24.00
   31.4503     34.44     34.21    -25.59     24.00
   31.4605     34.60     34.18    -25.40     24.00
   31.4707     34.13     34.15    -25.84     24.00
   31.4808     34.04     34.12    -25.90     24.00
   31.4910     34.23     34.09    -25.68     24.00
   31.5011     34.62     34.06    -25.26     24.00
   31.5113     34.29     34.03    -25.56     24.00
   31.5215     34.70     34.01    -25.13     24.00
   31.5316     34.51     33.98    -25.29     24.00
   31.5418     33.85     33.95    -25.92     24.00
   31.5520     33.76     33.93    -25.99     24.00
   31.5621     34.66     33.90    -25.06     24.00
   31.5723     33.58     33.88    -26.12     24.00
   31.5825     33.72     33.86    -25.96     24.00
   31.5926     34.40     33.84    -25.26     24.00
   31.6028     34.19     33.81    -25.44     24.00
   31.6130     33.77     33.79    -25.84     24.00
   31.6231     33.46     33.77    -26.13     24.00
   31.6333     34.04     33.75    -25.53     24.00
   31.6435     33.36     33.74    -26.20     24.00
   31.6536     33.74     33.72    -25.80     24.00
   31.6638     33.92     33.70    -25.60     24.00
   31.6739     33.72     33.68    -25.78     24.00
   31.6841     33.57     33.67    -25.92     24.00
   31.6943     32.99     33.65    -26.48     24.00
   31.7044     33.62     33.64    -25.84     24.00
   31.7146     34.41     33.62    -25.03     24.00
   31.7248     32.97     33.61    -26.46     24.00
   31.7349     33.84     33.60    -25.58     24.00
   31.7451     33.93     33.58    -25.47     24.00
   31.7553     33.13     33.57    -26.26     24.00
   31.7654     34.02     33.56    -25.36     24.00
   31.7756     34.21     33.55    -25.16     24.00
   31.7858     34.04     33.54    -25.32     24.00
   31.7959     34.10     33.53    -25.25     24.00
   31.8061     34.26     33.52    -25.08     24.00
   31.8162     33.29     33.51    -26.04     24.00
   31.8264     33.88     33.50    -25.44     24.00
   31.8366     34.25     33.49    -25.06     24.00
   31.8467     34.27     33.48    -25.03     24.00
   31.8569     33.60     33.48    -25.70     24.00
   31.8671     33.65     33.47    -25.64     24.00
   31.8772     33.20     33.46    -26.08     24.00
   31.8874     32.49     33.46    -26.79     24.00
   31.8976     33.53     33.45    -25.74     24.00
   31.9077     32.85     33.45    -26.42     24.00
   31.9179     32.89     33.44    -26.37     24.00
   31.9281     33.07     33.44    -26.19     24.00
   31.9382     33.25     33.44    -26.01     24.00
   31.9484     33.21     33.43    -26.04     24.00
   31.9586     33.43     33.43    -25.82     24.00
   31.9687     33.35     33.43    -25.90     24.00
   31.9789     32.91     33.42    -26.33     24.00
   31.9890     33.85     33.42    -25.39     24.00
   31.9992     33.15     33.42    -26.09     24.00
   32.0094     32.95     33.42    -26.29     24.00
   32.0195     33.04     33.42    -26.20     24.00
   32.0297     33.60     33.42    -25.64     24.00
   32.0399     32.67     33.42    -26.57     24.00
   32.0500     33.45     33.42    -25.79     24.00
   32.0602     33.28     33.42    -25.96     24.00
   32.0704     33.61     33.42    -25.63     24.00
   32.0805     33.52     33.42    -25.72     24.00
   32.0907     32.59     33.42    -26.65     24.00
   32.1009     32.98     33.42    -26.26     24.00
   32.1110     33.64     33.42    -25.60     24.00
   32.1212     32.79     33.42    -26.45     24.00
   32.1313     33.68     33.42    -25.56     24.00
   32.1415     33.87     33.43    -25.38     24.00
   32.1517     33.34     33.43    -25.91     24.00
   32.1618     33.63     33.43    -25.62     24.00
   32.1720     32.88     33.43    -26.37     24.00
   32.1822     32.77     33.43    -26.48     24.00
   32.1923     32.80     33.44    -26.46     24.00
   32.2025     32.78     33.44    -26.48     24.00
   32.2127     33.31     33.44    -25.95     24.00
   32.2228     32.69     33.44    -26.57     24.00
   32.2330     32.16     33.45    -27.11     24.00
   32.2432     32.51     33.45    -26.76     24.00
   32.2533     32.57     33.45    -26.70     24.00
   32.2635     33.66     33.46    -25.62     24.00
   32.2737     32.93     33.46    -26.35     24.00
   32.2838     33.01     33.46    -26.27     24.00
   32.2940     33.51     33.47    -25.78     24.00
   32.3041     32.75     33.47    -26.54     24.00
   32.3143     33.09     33.47    -26.20     24.00
   32.3245     32.90     33.48    -26.40     24.00
   32.3346     32.68     33.48    -26.62     24.00
   32.3448     32.36     33.48    -26.94     24.00
   32.3550     32.30     33.49    -27.01     24.00
   32.3651     32.53     33.49    -26.78     24.00
   32.3753     33.42     33.49    -25.89     24.00
   32.3855     33.07     33.49    -26.24     24.00
   32.3956     32.62     33.50    -26.70     24.00
   32.4058     32.66     33.50    -26.66     24.00
   32.4160     32.64     33.50    -26.68     24.00
   32.4261     33.38     33.51    -25.95     24.00
   32.4363     32.63     33.51    -26.70     24.00
   32.4464     33.18     33.51    -26.15     24.00
   32.4566     31.27     33.51    -28.06     24.00
   32.4668     33.07     33.51    -26.26     24.00
   32.4769     32.82     33.52    -26.52     24.00
   32.4871     32.48     33.52    -26.86     24.00
   32.4973     32.76     33.52    -26.58     24.00
   32.5074     33.23     33.52    -26.11     24.00
   32.5176     32.89     33.52    -26.45     24.00
   32.5278     32.97     33.52    -26.37     24.00
   32.5379     33.98     33.52    -25.36     24.00
   32.5481     32.12     33.53    -27.23     24.00
   32.5583     33.07     33.53    -26.28     24.00
   32.5684     32.98     33.53    -26.37     24.00
   32.5786     31.98     33.53    -27.37     24.00
   32.5888     32.95     33.53    -26.40     24.00
   32.5989     32.73     33.53    -26.62     24.00
   32.6091     32.10     33.52    -27.24     24.00
   32.6192     32.56     33.52    -26.78     24.00
   32.6294     33.19     33.52    -26.15     24.00
   32.6396     32.88     33.52    -26.46     24.00
   32.6497     32.63     33.52    -26.71     24.00
   32.6599     33.93     33.52    -25.41     24.00
   32.6701     31.90     33.51    -27.43     24.00
   32.6802     32.55     33.51    -26.78     24.00
   32.6904     32.46     33.51    -26.87     24.00
   32.7006     32.73     33.50    -26.59     24.00
   32.7107     34.01     33.50    -25.31     24.00
   32.7209     32.34     33.50    -26.98     24.00
   32.7311     32.43     33.49    -26.88     24.00
   32.7412     32.93     33.49    -26.38     24.00
   32.7514     33.72     33.48    -25.58     24.00
   32.7615     33.03     33.48    -26.27     24.00
   32.7717     32.18     33.47    -27.11     24.00
   32.7819     32.99     33.47    -26.30     24.00
   32.7920     32.20     33.46    -27.08     24.00
   32.8022     32.53     33.45    -26.74     24.00
   32.8124     33.34     33.44    -25.92     24.00
   32.8225     33.05     33.44    -26.21     24.00
   32.8327     33.55     33.43    -25.70     24.00
   32.8429     33.05     33.42    -26.19     24.00
   32.8530     33.11     33.41    -26.12     24.00
   32.8632     33.30     33.40    -25.92     24.00
   32.8734     32.50     33.39    -26.71     24.00
   32.8835     33.25     33.38    -25.95     24.00
   32.8937     32.38     33.37    -26.81     24.00
   32.9039     32.60     33.36    -26.58     24.00
   32.9140     33.55     33.35    -25.62     24.00
   32.9242     32.27     33.34    -26.89     24.00
   32.9343     33.17     33.33    -25.98     24.00
   32.9445     32.62     33.31    -26.51     24.00
   32.9547     33.36     33.30    -25.76     24.00
   32.9648     31.99     33.29    -27.12     24.00
   32.9750     32.67     33.27    -26.42     24.00
   32.9852     32.47     33.26    -26.61     24.00
   32.9953     32.79     33.24    -26.27     24.00
   33.0055     33.07     33.23    -25.98     24.00
   33.0157     33.46     33.21    -25.57     24.00
   33.0258     32.91     33.20    -26.11     24.00
   33.0360     32.96     33.18    -26.04     24.00
   33.0462     32.27     33.16    -26.71     24.00
   33.0563     33.10     33.15    -25.87     24.00
   33.0665     33.17     33.13    -25.78     24.00
   33.0766     33.04     33.11    -25.89     24.00
   33.0868     33.26     33.09    -25.65     24.00
   33.0970     33.53     33.07    -25.36     24.00
   33.1071     32.62     33.06    -26.26     24.00
   33.1173     33.22     33.04    -25.64     24.00
   33.1275     32.87     33.02    -25.97     24.00
   33.1376     33.02     32.99    -25.79     24.00
   33.1478     33.65     32.97    -25.14     24.00
   33.1580     32.85     32.95    -25.92     24.00
   33.1681     33.22     32.93    -25.53     24.00
   33.1783     32.84     32.91    -25.89     24.00
   33.1885     33.34     32.88    -25.36     24.00
   33.1986     33.73     32.86    -24.95     24.00
   33.2088     32.52     32.84    -26.14     24.00
   33.2189     32.98     32.81    -25.65     24.00
   33.2291     33.71     32.79    -24.90     24.00
   33.2393     33.78     32.76    -24.80     24.00
   33.2494     33.00     32.74    -25.56     24.00
   33.2596     33.21     32.71    -25.32     24.00
   33.2698     34.27     32.69    -24.24     24.00
   33.2799     34.55     32.66    -23.93     24.00
   33.2901     33.57     32.63    -24.88     24.00
   33.3003     33.07     32.61    -25.36     24.00
   33.3104     32.55     32.58    -25.85     24.00
   33.3206     33.26     32.55    -25.11     24.00
   33.3308     33.57     32.52    -24.77     24.00
   33.3409     33.51     32.49    -24.80     24.00
   33.3511     33.63     32.47    -24.66     24.00
   33.3613     34.39     32.44    -23.87     24.00
   33.3714     33.29     32.41    -24.94     24.00
   33.3816     34.16     32.38    -24.04     24.00
   33.3917     33.41     32.35    -24.76     24.00
   33.4019     33.09     32.32    -25.05     24.00
   33.4121     33.40     32.28    -24.70     24.00
   33.4222     34.46     32.25    -23.61     24.00
   33.4324     34.26     32.22    -23.78     24.00
   33.4426     34.46     32.19    -23.55     24.00
   33.4527     33.99     32.16    -23.99     24.00
   33.4629     33.71     32.12    -24.23     24.00
   33.4731     33.66     32.09    -24.25     24.00
   33.4832     33.64     32.06    -24.24     24.00
   33.4934     33.43     32.02    -24.41     24.00
   33.5036     33.72     31.99    -24.09     24.00
   33.5137     33.90     31.96    -23.88     24.00
   33.5239     32.99     31.92    -24.75     24.00
   33.5340     33.46     31.89    -24.25     24.00
   33.5442     33.45     31.85    -24.22     24.00
   33.5544     33.12     31.82    -24.52     24.00
   33.5645     33.38     31.78    -24.22     24.00
   33.5747     33.34     31.74    -24.22     24.00
   33.5849     33.21     31.71    -24.32     24.00
   33.5950     33.50     31.67    -23.99     24.00
   33.6052     33.05     31.64    -24.41     24.00
   33.6154     34.16     31.60    -23.26     24.00
   33.6255     33.22     31.56    -24.16     24.00
   33.6357     33.30     31.52    -24.04     24.00
   33.6459     33.23     31.49    -24.08     24.00
   33.6560     33.16     31.45    -24.11     24.00
   33.6662     32.47     31.41    -24.76     24.00
   33.6764     33.32     31.37    -23.87     24.00
   33.6865     33.25     31.34    -23.91     24.00
   33.6967     32.96     31.30    -24.16     24.00
   33.7068     32.80     31.26    -24.28     24.00
   33.7170     32.71     31.22    -24.33     24.00
   33.7272     31.27     31.18    -25.73     24.00
   33.7373     32.19     31.14    -24.77     24.00
   33.7475     32.80     31.10    -24.12     24.00
   33.7577     32.25     31.06    -24.63     24.00
   33.7678     32.11     31.02    -24.73     24.00
   33.7780     32.65     30.99    -24.16     24.00
   33.7882     31.13     30.95    -25.64     24.00
   33.7983     31.60     30.91    -25.13     24.00
   33.8085     31.68     30.87    -25.01     24.00
   33.8187     31.32     30.83    -25.33     24.00
   33.8288     31.65     30.79    -24.96     24.00
   33.8390     31.35     30.75    -25.22     24.00
   33.8491     31.71     30.71    -24.82     24.00
   33.8593     30.87     30.66    -25.61     24.00
   33.8695     31.31     30.62    -25.13     24.00
   33.8796     30.98     30.58    -25.42     24.00
   33.8898     31.50     30.54    -24.86     24.00
   33.9000     31.11     30.50    -25.21     24.00
   33.9101     30.70     30.46    -25.58     24.00
   33.9203     30.71     30.42    -25.53     24.00
   33.9305     30.79     30.38    -25.41     24.00
   33.9406     30.40     30.34    -25.76     24.00
   33.9508     30.71     30.30    -25.41     24.00
   33.9610     30.79     30.26    -25.29     24.00
   33.9711     31.22     30.22    -24.82     24.00
   33.9813     30.89     30.18    -25.11     24.00
   33.9915     30.09     30.13    -25.86     24.00
   34.0016     30.11     30.09    -25.80     24.00
   34.0118     31.01     30.05    -24.86     24.00
   34.0219     29.38     30.01    -26.45     24.00
   34.0321     29.74     29.97    -26.05     24.00
   34.0423     30.13     29.93    -25.62     24.00
   34.0524     30.76     29.89    -24.95     24.00
   34.0626     30.47     29.85    -25.20     24.00
   34.0728     29.54     29.81    -26.09     24.00
   34.0829     30.14     29.77    -25.45     24.00
   34.0931     28.92     29.73    -26.63     24.00
   34.1033     28.71     29.69    -26.80     24.00
   34.1134     29.35     29.65    -26.12     24.00
   34.1236     28.37     29.60    -27.05     24.00
   34.1338     28.68     29.56    -26.70     24.00
   34.1439     29.34     29.52    -26.00     24.00
   34.1541     29.06     29.48    -26.24     24.00
   34.1642     28.98     29.44    -26.28     24.00
   34.1744     28.74     29.40    -26.48     24.00
   34.1846     29.10     29.36    -26.08     24.00
   34.1947     28.64     29.32    -26.50     24.00
   34.2049     28.74     29.28    -26.36     24.00
   34.2151     28.04     29.24    -27.02     24.00
   34.2252     28.53     29.20    -26.49     24.00
   34.2354     28.34     29.16    -26.64     24.00
   34.2456     28.65     29.12    -26.29     24.00
   34.2557     28.43     29.09    -26.48     24.00
   34.2659     28.32     29.05    -26.55     24.00
   34.2761     28.42     29.01    -26.41     24.00
   34.2862     28.66     28.97    -26.13     24.00
   34.2964     28.60     28.93    -26.15     24.00
   34.3066     27.18     28.89    -27.53     24.00
   34.3167     28.55     28.85    -26.12     24.00
   34.3269     27.70     28.81    -26.93     24.00
   34.3370     27.55     28.78    -27.05     24.00
   34.3472     28.38     28.74    -26.18     24.00
   34.3574     27.87     28.70    -26.65     24.00
   34.3675     27.40     28.66    -27.08     24.00
   34.3777     28.57     28.62    -25.87     24.00
   34.3879     28.01     28.59    -26.40     24.00
   34.3980     27.98     28.55    -26.39     24.00
   34.4082     27.85     28.51    -26.48     24.00
   34.4184     27.34     28.48    -26.96     24.00
   34.4285     27.64     28.44    -26.62     24.00
   34.4387     27.86     28.40    -26.36     24.00
   34.4489     28.03     28.37    -26.16     24.00
   34.4590     27.13     28.33    -27.02     24.00
   34.4692     27.30     28.29    -26.81     24.00
   34.4793     27.61     28.26    -26.47     24.00
   34.4895     27.37     28.22    -26.67     24.00
   34.4997     27.35     28.19    -26.66     24.00
   34.5098     28.39     28.15    -25.58     24.00
   34.5200     27.17     28.12    -26.77     24.00
   34.5302     27.37     28.08    -26.53     24.00
   34.5403     27.92     28.05    -25.95     24.00
   34.5505     26.79     28.01    -27.04     24.00
   34.5607     26.99     27.98    -26.81     24.00
   34.5708     27.16     27.94    -26.60     24.00
   34.5810     26.70     27.91    -27.03     24.00
   34.5912     27.37     27.88    -26.33     24.00
   34.6013     27.09     27.84    -26.57     24.00
   34.6115     27.34     27.81    -26.29     24.00
   34.6217     26.74     27.78    -26.86     24.00
   34.6318     27.08     27.74    -26.48     24.00
   34.6420     26.95     27.71    -26.58     24.00
   34.6521     26.92     27.68    -26.58     24.00
   34.6623     26.76     27.65    -26.71     24.00
   34.6725     27.12     27.62    -26.32     24.00
   34.6826     26.52     27.58    -26.88     24.00
   34.6928     26.41     27.55    -26.96     24.00
   34.7030     26.59     27.52    -26.75     24.00
   34.7131     27.16     27.49    -26.15     24.00
   34.7233     26.41     27.46    -26.87     24.00
   34.7335     26.92     27.43    -26.33     24.00
   34.7436     27.10     27.40    -26.12     24.00
   34.7538     26.55     27.37    -26.64     24.00
   34.7640     27.23     27.34    -25.93     24.00
   34.7741     27.12     27.31    -26.01     24.00
   34.7843     26.30     27.28    -26.80     24.00
   34.7944     26.66     27.25    -26.41     24.00
   34.8046     26.65     27.22    -26.39     24.00
   34.8148     26.02     27.20    -27.00     24.00
   34.8249     26.55     27.17    -26.44     24.00
   34.8351     26.59     27.14    -26.37     24.00
   34.8453     26.73     27.11    -26.20     24.00
   34.8554     26.76     27.08    -26.14     24.00
   34.8656     26.06     27.06    -26.82     24.00
   34.8758     26.86     27.03    -25.99     24.00
   34.8859     26.95     27.00    -25.87     24.00
   34.8961     26.45     26.98    -26.35     24.00
   34.9063     25.93     26.95    -26.84     24.00
   34.9164     26.77     26.92    -25.97     24.00
   34.9266     26.76     26.90    -25.96     24.00
   34.9367     25.80     26.87    -26.89     24.00
   34.9469     25.78     26.85    -26.89     24.00
   34.9571     26.13     26.82    -26.51     24.00
   34.9672     26.61     26.80    -26.01     24.00
   34.9774     26.34     26.77    -26.25     24.00
   34.9876     25.77     26.75    -26.80     24.00
   34.9977     26.62     26.72    -25.92     24.00
   35.0079     25.79     26.70    -26.73     24.00
   35.0181     26.32     26.68    -26.18     24.00
   35.0282     25.61     26.65    -26.86     24.00
   35.0384     26.22     26.63    -26.23     24.00
   35.0486     25.93     26.61    -26.50     24.00
   35.0587     25.88     26.58    -26.52     24.00
   35.0689     25.62     26.56    -26.76     24.00
   35.0791     26.13     26.54    -26.23     24.00
   35.0892     25.95     26.52    -26.39     24.00
   35.0994     25.99     26.49    -26.32     24.00
   35.1095     26.28     26.47    -26.01     24.00
   35.1197     26.12     26.45    -26.15     24.00
   35.1299     25.72     26.43    -26.53     24.00
   35.1400     26.61     26.41    -25.62     24.00
   35.1502     25.87     26.39    -26.34     24.00
   35.1604     25.74     26.37    -26.45     24.00
   35.1705     26.41     26.35    -25.76     24.00
   35.1807     26.05     26.33    -26.10     24.00
   35.1909     25.80     26.31    -26.33     24.00
   35.2010     26.32     26.29    -25.79     24.00
   35.2112     25.75     26.27    -26.34     24.00
   35.2214     25.52     26.25    -26.55     24.00
   35.2315     25.98     26.23    -26.07     24.00
   35.2417     25.98     26.21    -26.05     24.00
   35.2518     25.74     26.19    -26.27     24.00
   35.2620     24.95     26.18    -27.05     24.00
   35.2722     25.77     26.16    -26.21     24.00
   35.2823     26.04     26.14    -25.92     24.00
   35.2925     25.77     26.12    -26.17     24.00
   35.3027     26.18     26.10    -25.74     24.00
   35.3128     25.76     26.09    -26.15     24.00
   35.3230     25.88     26.07    -26.01     24.00
   35.3332     25.37     26.05    -26.50     24.00
   35.3433     25.70     26.04    -26.16     24.00
   35.3535     26.54     26.02    -25.30     24.00
   35.3637     25.18     26.00    -26.64     24.00
   35.3738     25.96     25.99    -25.85     24.00
   35.3840     25.80     25.97    -25.99     24.00
   35.3942     25.60     25.96    -26.18     24.00
   35.4043     25.62     25.94    -26.14     24.00
   35.4145     25.46     25.93    -26.29     24.00
   35.4246     24.81     25.91    -26.92     24.00
   35.4348     25.76     25.90    -25.96     24.00
   35.4450     25.59     25.88    -26.11     24.00
   35.4551     24.81     25.87    -26.88     24.00
   35.4653     25.80     25.85    -25.87     24.00
   35.4755     25.51     25.84    -26.15     24.00
   35.4856     26.17     25.82    -25.47     24.00
   35.4958     25.51     25.81    -26.12     24.00
   35.5060     25.93     25.80    -25.69     24.00
   35.5161     25.31     25.78    -26.29     24.00
   35.5263     25.48     25.77    -26.11     24.00
   35.5365     25.60     25.76    -25.98     24.00
   35.5466     25.69     25.74    -25.87     24.00
   35.5568     25.52     25.73    -26.03     24.00
   35.5669     25.23     25.72    -26.31     24.00
   35.5771     24.96     25.71    -26.57     24.00
   35.5873     25.63     25.69    -25.88     24.00
   35.5974     25.19     25.68    -26.31     24.00
   35.6076     25.70     25.67    -25.79     24.00
   35.6178     25.72     25.66    -25.76     24.00
   35.6279     25.51     25.65    -25.96     24.00
   35.6381     25.20     25.64    -26.26     24.00
   35.6483     25.55     25.62    -25.89     24.00
   35.6584     25.50     25.61    -25.93     24.00
   35.6686     25.27     25.60    -26.15     24.00
   35.6788     25.30     25.59    -26.11     24.00
   35.6889     25.37     25.58    -26.03     24.00
   35.6991     25.16     25.57    -26.23     24.00
   35.7093     25.03     25.56    -26.35     24.00
   35.7194     24.99     25.55    -26.38     24.00
   35.7296     25.44     25.54    -25.92     24.00
   35.7397     24.80     25.53    -26.55     24.00
   35.7499     25.80     25.52    -25.54     24.00
   35.7601     25.49     25.51    -25.84     24.00
   35.7702     24.59     25.50    -26.73     24.00
   35.7804     24.98     25.49    -26.33     24.00
   35.7906     24.70     25.48    -26.60     24.00
   35.8007     24.60     25.47    -26.69     24.00
   35.8109     25.27     25.46    -26.01     24.00
   35.8211     24.82     25.45    -26.45     24.00
   35.8312     24.96     25.44    -26.30     24.00
   35.8414     25.09     25.44    -26.17     24.00
   35.8516     25.88     25.43    -25.37     24.00
   35.8617     25.20     25.42    -26.04     24.00
   35.8719     24.64     25.41    -26.59     24.00
   35.8820     24.01     25.40    -27.21     24.00
   35.8922     24.83     25.39    -26.38     24.00
   35.9024     25.26     25.39    -25.95     24.00
   35.9125     25.08     25.38    -26.12     24.00
   35.9227     24.78     25.37    -26.41     24.00
   35.9329     25.53     25.36    -25.65     24.00
   35.9430     24.64     25.35    -26.53     24.00
   35.9532     25.14     25.35    -26.03     24.00
   35.9634     24.86     25.34    -26.30     24.00
   35.9735     25.08     25.33    -26.07     24.00
   35.9837     24.96     25.32    -26.18     24.00
   35.9939     24.73     25.32    -26.41     24.00
