! WinPLOTR profile fitting results:
!   data file: G310--5-40-0.01-1000ms.xy
!    wave (A):      1.54060     1.54060     0.50000
!
!   2theta(deg.) sig_2th        d(A)   Intensity     sig_int         FWHM    FWHM_sig         ETA     ETA_sig
!------------------------------------------------------------------------------------------------------------------
   18.670197    0.009166     4.74883      149.77        4.70     0.910015    0.024962    0.500000    0.000000
   20.369936    0.037516     4.35625       91.89        9.37     1.743766    0.155797    0.500000    0.000000
   22.448875    0.019414     3.95730      112.40        5.88     1.307535    0.054908    0.500000    0.000000
   28.531862    0.032912     3.12593       36.51        2.41     1.312554    0.085446    0.500000    0.000000
   30.012529    0.000000     2.97500       28.43        4.14     2.739107    0.365463    0.500000    0.000000
   33.380329    0.000000     2.68214       22.54        2.91     2.784356    0.000000    0.500000    0.000000
   17.272346    0.000000     5.12988       82.80        4.96     2.284356    0.000000    0.500000    0.000000
   20.118004    0.000000     4.41023      934.50       15.73    11.488661    0.335416    0.500000    0.000000
   18.668268    0.010345     4.74932      119.76        5.37     0.902444    0.027211    0.079634    0.027116
   20.320494    0.041537     4.36673       74.85        7.49     1.772440    0.162899    0.079634    0.027116
   22.452904    0.020658     3.95660       88.58        4.11     1.292460    0.050304    0.079634    0.027116
   28.446247    0.030640     3.13514       34.92        2.18     1.404802    0.074971    0.079634    0.027116
   29.934210    0.000000     2.98260       26.73        1.75     2.114662    0.000000    0.079634    0.027116
   33.380329    0.000000     2.68214       14.54        1.19     2.114662    0.000000    0.079634    0.027116
   17.370718    0.075608     5.10105       58.40        4.26     2.114662    0.000000    0.079634    0.027116
   19.978912    0.039670     4.44062      775.32       15.39    10.407698    0.210604    0.079634    0.027116
