 => TITLE: 
 => Data file name: C:\Users\stefano\Nextcloud2\uni\master-thesis\XRD\data\G305\G305--5-40-0.01-1000ms.xy
 => Instrm        :    1
 => Lambda(1&2)   :   1.54060  1.54060
 => Numb.of.points:      2951
 => Numb.of.peaks :         8
    2Theta     Yobs     Ycalc  Yobs-Ycal    Backg    Bragg     Posr  Intensity   FWHM    Eta
    6.0086     24.68     25.33    -22.17     24.00   18.5814      0.71     120.31  0.8827  0.0927
    6.0187     25.04     25.33    -21.82     24.00   20.2443      0.71      84.53  1.8452  0.0927
    6.0289     25.01     25.34    -21.85     24.00   22.3933      0.71      92.36  1.2798  0.0927
    6.0391     24.21     25.34    -22.66     24.00   28.3156      0.71      33.49  1.3883  0.0927
    6.0492     24.46     25.35    -22.41     24.00   29.7776      0.71      31.96  2.3888  0.0927
    6.0594     24.79     25.35    -22.09     24.00   33.2498      0.71      17.34  2.3888  0.0927
    6.0696     24.70     25.36    -22.18     24.00   17.4076      0.71      75.11  2.3888  0.0927
    6.0797     24.29     25.37    -22.60     24.00   19.8105      0.71     836.67 10.7189  0.0927
    6.0899     24.72     25.37    -22.17     24.00
    6.1001     24.35     25.38    -22.55     24.00
    6.1102     24.49     25.38    -22.42     24.00
    6.1204     24.20     25.39    -22.71     24.00
    6.1306     24.32     25.39    -22.60     24.00
    6.1407     24.40     25.40    -22.52     24.00
    6.1509     24.18     25.41    -22.75     24.00
    6.1611     24.45     25.41    -22.49     24.00
    6.1712     23.84     25.42    -23.10     24.00
    6.1814     24.26     25.42    -22.69     24.00
    6.1915     23.88     25.43    -23.07     24.00
    6.2017     24.03     25.43    -22.93     24.00
    6.2119     23.87     25.44    -23.09     24.00
    6.2220     24.30     25.45    -22.67     24.00
    6.2322     23.94     25.45    -23.04     24.00
    6.2424     23.80     25.46    -23.18     24.00
    6.2525     24.66     25.46    -22.33     24.00
    6.2627     23.66     25.47    -23.34     24.00
    6.2729     24.15     25.48    -22.85     24.00
    6.2830     24.28     25.48    -22.73     24.00
    6.2932     24.60     25.49    -22.41     24.00
    6.3034     23.36     25.50    -23.66     24.00
    6.3135     23.60     25.50    -23.43     24.00
    6.3237     23.59     25.51    -23.44     24.00
    6.3338     24.84     25.51    -22.20     24.00
    6.3440     24.73     25.52    -22.32     24.00
    6.3542     23.96     25.53    -23.09     24.00
    6.3643     24.35     25.53    -22.71     24.00
    6.3745     23.30     25.54    -23.76     24.00
    6.3847     23.27     25.55    -23.80     24.00
    6.3948     24.23     25.55    -22.85     24.00
    6.4050     23.91     25.56    -23.17     24.00
    6.4152     23.70     25.57    -23.39     24.00
    6.4253     24.16     25.57    -22.94     24.00
    6.4355     24.27     25.58    -22.83     24.00
    6.4457     23.38     25.59    -23.73     24.00
    6.4558     24.00     25.59    -23.12     24.00
    6.4660     23.90     25.60    -23.23     24.00
    6.4762     23.70     25.61    -23.43     24.00
    6.4863     23.93     25.61    -23.21     24.00
    6.4965     24.17     25.62    -22.98     24.00
    6.5066     23.94     25.63    -23.21     24.00
    6.5168     23.84     25.64    -23.32     24.00
    6.5270     23.93     25.64    -23.24     24.00
    6.5371     22.95     25.65    -24.22     24.00
    6.5473     23.12     25.66    -24.06     24.00
    6.5575     23.91     25.66    -23.28     24.00
    6.5676     24.20     25.67    -23.00     24.00
    6.5778     24.59     25.68    -22.61     24.00
    6.5880     24.02     25.69    -23.19     24.00
    6.5981     24.21     25.69    -23.01     24.00
    6.6083     24.17     25.70    -23.05     24.00
    6.6185     24.54     25.71    -22.69     24.00
    6.6286     24.49     25.72    -22.75     24.00
    6.6388     24.31     25.72    -22.94     24.00
    6.6489     24.59     25.73    -22.66     24.00
    6.6591     24.38     25.74    -22.88     24.00
    6.6693     23.68     25.75    -23.59     24.00
    6.6794     23.57     25.75    -23.71     24.00
    6.6896     24.78     25.76    -22.50     24.00
    6.6998     24.46     25.77    -22.83     24.00
    6.7099     24.46     25.78    -22.84     24.00
    6.7201     23.53     25.78    -23.78     24.00
    6.7303     25.36     25.79    -21.96     24.00
    6.7404     24.38     25.80    -22.94     24.00
    6.7506     23.39     25.81    -23.94     24.00
    6.7608     23.76     25.82    -23.58     24.00
    6.7709     24.01     25.82    -23.34     24.00
    6.7811     23.87     25.83    -23.49     24.00
    6.7913     24.43     25.84    -22.93     24.00
    6.8014     24.32     25.85    -23.05     24.00
    6.8116     23.98     25.86    -23.40     24.00
    6.8217     24.18     25.86    -23.21     24.00
    6.8319     22.94     25.87    -24.46     24.00
    6.8421     23.62     25.88    -23.78     24.00
    6.8522     24.19     25.89    -23.22     24.00
    6.8624     24.31     25.90    -23.11     24.00
    6.8726     24.38     25.91    -23.05     24.00
    6.8827     25.31     25.91    -22.13     24.00
    6.8929     24.70     25.92    -22.75     24.00
    6.9031     24.97     25.93    -22.49     24.00
    6.9132     23.93     25.94    -23.53     24.00
    6.9234     23.61     25.95    -23.86     24.00
    6.9336     23.90     25.96    -23.58     24.00
    6.9437     24.36     25.97    -23.13     24.00
    6.9539     24.58     25.97    -22.92     24.00
    6.9640     24.64     25.98    -22.87     24.00
    6.9742     24.35     25.99    -23.17     24.00
    6.9844     24.02     26.00    -23.51     24.00
    6.9945     24.35     26.01    -23.18     24.00
    7.0047     24.76     26.02    -22.78     24.00
    7.0149     24.35     26.03    -23.20     24.00
    7.0250     24.51     26.04    -23.05     24.00
    7.0352     24.78     26.05    -22.79     24.00
    7.0454     23.80     26.06    -23.78     24.00
    7.0555     24.70     26.07    -22.89     24.00
    7.0657     24.51     26.07    -23.09     24.00
    7.0759     24.20     26.08    -23.41     24.00
    7.0860     24.05     26.09    -23.57     24.00
    7.0962     25.04     26.10    -22.59     24.00
    7.1064     24.80     26.11    -22.84     24.00
    7.1165     25.11     26.12    -22.54     24.00
    7.1267     25.05     26.13    -22.60     24.00
    7.1368     24.51     26.14    -23.15     24.00
    7.1470     24.55     26.15    -23.12     24.00
    7.1572     24.93     26.16    -22.75     24.00
    7.1673     24.74     26.17    -22.95     24.00
    7.1775     25.26     26.18    -22.44     24.00
    7.1877     25.18     26.19    -22.53     24.00
    7.1978     25.03     26.20    -22.69     24.00
    7.2080     25.48     26.21    -22.25     24.00
    7.2182     25.16     26.22    -22.58     24.00
    7.2283     24.31     26.23    -23.44     24.00
    7.2385     24.27     26.24    -23.49     24.00
    7.2487     25.16     26.25    -22.61     24.00
    7.2588     24.41     26.26    -23.37     24.00
    7.2690     24.22     26.27    -23.57     24.00
    7.2791     25.06     26.28    -22.74     24.00
    7.2893     25.32     26.29    -22.49     24.00
    7.2995     25.57     26.30    -22.26     24.00
    7.3096     25.25     26.31    -22.59     24.00
    7.3198     25.34     26.32    -22.51     24.00
    7.3300     25.77     26.33    -22.09     24.00
    7.3401     26.04     26.34    -21.83     24.00
    7.3503     25.42     26.35    -22.46     24.00
    7.3605     24.62     26.36    -23.27     24.00
    7.3706     25.79     26.38    -22.11     24.00
    7.3808     24.51     26.39    -23.40     24.00
    7.3910     25.77     26.40    -22.15     24.00
    7.4011     25.38     26.41    -22.55     24.00
    7.4113     25.90     26.42    -22.04     24.00
    7.4215     25.30     26.43    -22.65     24.00
    7.4316     25.34     26.44    -22.63     24.00
    7.4418     25.52     26.45    -22.46     24.00
    7.4519     24.95     26.46    -23.04     24.00
    7.4621     25.12     26.47    -22.88     24.00
    7.4723     25.76     26.49    -22.25     24.00
    7.4824     24.71     26.50    -23.31     24.00
    7.4926     25.24     26.51    -22.79     24.00
    7.5028     24.85     26.52    -23.19     24.00
    7.5129     25.95     26.53    -22.11     24.00
    7.5231     26.25     26.54    -21.82     24.00
    7.5333     25.31     26.56    -22.77     24.00
    7.5434     25.09     26.57    -23.00     24.00
    7.5536     25.80     26.58    -22.30     24.00
    7.5638     26.45     26.59    -21.66     24.00
    7.5739     25.03     26.60    -23.10     24.00
    7.5841     25.90     26.61    -22.24     24.00
    7.5942     25.20     26.63    -22.95     24.00
    7.6044     25.68     26.64    -22.48     24.00
    7.6146     26.62     26.65    -21.55     24.00
    7.6247     25.74     26.66    -22.45     24.00
    7.6349     26.01     26.67    -22.19     24.00
    7.6451     26.16     26.69    -22.05     24.00
    7.6552     25.63     26.70    -22.59     24.00
    7.6654     24.76     26.71    -23.48     24.00
    7.6756     26.00     26.72    -22.25     24.00
    7.6857     25.89     26.74    -22.37     24.00
    7.6959     26.26     26.75    -22.01     24.00
    7.7061     26.25     26.76    -22.04     24.00
    7.7162     26.21     26.78    -22.09     24.00
    7.7264     25.78     26.79    -22.53     24.00
    7.7365     26.09     26.80    -22.23     24.00
    7.7467     27.25     26.81    -21.09     24.00
    7.7569     26.43     26.83    -21.92     24.00
    7.7670     26.20     26.84    -22.16     24.00
    7.7772     26.45     26.85    -21.93     24.00
    7.7874     26.66     26.87    -21.73     24.00
    7.7975     25.90     26.88    -22.50     24.00
    7.8077     26.32     26.89    -22.10     24.00
    7.8179     26.24     26.91    -22.19     24.00
    7.8280     25.88     26.92    -22.56     24.00
    7.8382     26.13     26.93    -22.33     24.00
    7.8484     26.83     26.95    -21.64     24.00
    7.8585     26.23     26.96    -22.25     24.00
    7.8687     26.56     26.97    -21.94     24.00
    7.8789     25.54     26.99    -22.97     24.00
    7.8890     26.43     27.00    -22.09     24.00
    7.8992     27.12     27.01    -21.42     24.00
    7.9093     26.48     27.03    -22.07     24.00
    7.9195     26.20     27.04    -22.37     24.00
    7.9297     27.01     27.06    -21.57     24.00
    7.9398     26.79     27.07    -21.80     24.00
    7.9500     26.51     27.09    -22.10     24.00
    7.9602     27.08     27.10    -21.54     24.00
    7.9703     26.48     27.11    -22.16     24.00
    7.9805     26.92     27.13    -21.73     24.00
    7.9907     26.82     27.14    -21.85     24.00
    8.0008     27.29     27.16    -21.39     24.00
    8.0110     27.29     27.17    -21.41     24.00
    8.0212     26.39     27.19    -22.32     24.00
    8.0313     27.56     27.20    -21.17     24.00
    8.0415     27.11     27.22    -21.63     24.00
    8.0516     26.87     27.23    -21.88     24.00
    8.0618     26.98     27.25    -21.79     24.00
    8.0720     27.41     27.26    -21.37     24.00
    8.0821     27.36     27.28    -21.44     24.00
    8.0923     27.07     27.29    -21.75     24.00
    8.1025     27.93     27.31    -20.90     24.00
    8.1126     27.32     27.32    -21.53     24.00
    8.1228     27.52     27.34    -21.34     24.00
    8.1330     27.63     27.35    -21.25     24.00
    8.1431     27.55     27.37    -21.34     24.00
    8.1533     26.53     27.38    -22.38     24.00
    8.1635     28.43     27.40    -20.49     24.00
    8.1736     27.16     27.41    -21.78     24.00
    8.1838     26.92     27.43    -22.03     24.00
    8.1940     27.98     27.45    -20.99     24.00
    8.2041     27.32     27.46    -21.67     24.00
    8.2143     27.37     27.48    -21.63     24.00
    8.2244     27.49     27.49    -21.53     24.00
    8.2346     27.59     27.51    -21.44     24.00
    8.2448     27.40     27.53    -21.65     24.00
    8.2549     27.35     27.54    -21.72     24.00
    8.2651     27.34     27.56    -21.74     24.00
    8.2753     27.82     27.58    -21.28     24.00
    8.2854     27.30     27.59    -21.82     24.00
    8.2956     27.76     27.61    -21.37     24.00
    8.3058     27.53     27.63    -21.62     24.00
    8.3159     27.97     27.64    -21.20     24.00
    8.3261     27.43     27.66    -21.75     24.00
    8.3363     27.90     27.68    -21.30     24.00
    8.3464     27.88     27.69    -21.34     24.00
    8.3566     28.52     27.71    -20.71     24.00
    8.3667     28.63     27.73    -20.62     24.00
    8.3769     28.18     27.75    -21.09     24.00
    8.3871     28.46     27.76    -20.83     24.00
    8.3972     28.38     27.78    -20.92     24.00
    8.4074     27.96     27.80    -21.36     24.00
    8.4176     29.32     27.81    -20.02     24.00
    8.4277     27.55     27.83    -21.81     24.00
    8.4379     28.09     27.85    -21.28     24.00
    8.4481     28.04     27.87    -21.35     24.00
    8.4582     28.00     27.89    -21.41     24.00
    8.4684     28.03     27.90    -21.40     24.00
    8.4786     27.82     27.92    -21.63     24.00
    8.4887     28.13     27.94    -21.33     24.00
    8.4989     28.90     27.96    -20.58     24.00
    8.5091     28.09     27.98    -21.41     24.00
    8.5192     27.41     27.99    -22.11     24.00
    8.5294     27.26     28.01    -22.28     24.00
    8.5395     28.25     28.03    -21.31     24.00
    8.5497     28.02     28.05    -21.55     24.00
    8.5599     28.40     28.07    -21.19     24.00
    8.5700     28.42     28.09    -21.19     24.00
    8.5802     30.01     28.11    -19.62     24.00
    8.5904     28.73     28.13    -20.92     24.00
    8.6005     29.41     28.14    -20.26     24.00
    8.6107     28.20     28.16    -21.49     24.00
    8.6209     28.50     28.18    -21.21     24.00
    8.6310     28.51     28.20    -21.22     24.00
    8.6412     28.68     28.22    -21.07     24.00
    8.6514     28.11     28.24    -21.65     24.00
    8.6615     28.18     28.26    -21.60     24.00
    8.6717     28.91     28.28    -20.89     24.00
    8.6818     28.65     28.30    -21.17     24.00
    8.6920     28.95     28.32    -20.89     24.00
    8.7022     28.55     28.34    -21.31     24.00
    8.7123     28.83     28.36    -21.05     24.00
    8.7225     28.70     28.38    -21.20     24.00
    8.7327     28.18     28.40    -21.74     24.00
    8.7428     29.66     28.42    -20.28     24.00
    8.7530     29.33     28.44    -20.63     24.00
    8.7632     28.32     28.46    -21.66     24.00
    8.7733     29.76     28.48    -20.24     24.00
    8.7835     29.58     28.50    -20.45     24.00
    8.7937     29.04     28.52    -21.01     24.00
    8.8038     29.20     28.54    -20.87     24.00
    8.8140     28.85     28.56    -21.24     24.00
    8.8242     29.37     28.58    -20.74     24.00
    8.8343     29.38     28.61    -20.75     24.00
    8.8445     28.94     28.63    -21.21     24.00
    8.8546     29.03     28.65    -21.14     24.00
    8.8648     30.46     28.67    -19.73     24.00
    8.8750     29.88     28.69    -20.33     24.00
    8.8851     29.05     28.71    -21.19     24.00
    8.8953     30.18     28.73    -20.08     24.00
    8.9055     29.62     28.76    -20.66     24.00
    8.9156     30.10     28.78    -20.20     24.00
    8.9258     29.60     28.80    -20.72     24.00
    8.9360     29.42     28.82    -20.92     24.00
    8.9461     29.64     28.84    -20.73     24.00
    8.9563     29.57     28.86    -20.82     24.00
    8.9665     29.89     28.89    -20.52     24.00
    8.9766     29.15     28.91    -21.28     24.00
    8.9868     29.61     28.93    -20.85     24.00
    8.9969     29.87     28.95    -20.61     24.00
    9.0071     30.12     28.98    -20.38     24.00
    9.0173     29.33     29.00    -21.19     24.00
    9.0274     29.38     29.02    -21.17     24.00
    9.0376     29.82     29.05    -20.75     24.00
    9.0478     29.39     29.07    -21.20     24.00
    9.0579     30.34     29.09    -20.28     24.00
    9.0681     31.23     29.11    -19.41     24.00
    9.0783     29.98     29.14    -20.68     24.00
    9.0884     29.41     29.16    -21.27     24.00
    9.0986     29.38     29.18    -21.33     24.00
    9.1088     30.08     29.21    -20.65     24.00
    9.1189     30.01     29.23    -20.75     24.00
    9.1291     29.83     29.26    -20.95     24.00
    9.1393     29.38     29.28    -21.42     24.00
    9.1494     30.15     29.30    -20.68     24.00
    9.1596     30.09     29.33    -20.76     24.00
    9.1697     30.41     29.35    -20.47     24.00
    9.1799     30.32     29.38    -20.58     24.00
    9.1901     30.36     29.40    -20.56     24.00
    9.2002     30.42     29.42    -20.53     24.00
    9.2104     30.08     29.45    -20.89     24.00
    9.2206     29.26     29.47    -21.74     24.00
    9.2307     29.99     29.50    -21.03     24.00
    9.2409     31.73     29.52    -19.32     24.00
    9.2511     30.81     29.55    -20.26     24.00
    9.2612     30.96     29.57    -20.14     24.00
    9.2714     30.69     29.60    -20.43     24.00
    9.2816     30.05     29.62    -21.10     24.00
    9.2917     30.95     29.65    -20.22     24.00
    9.3019     30.96     29.67    -20.24     24.00
    9.3120     30.59     29.70    -20.63     24.00
    9.3222     30.11     29.73    -21.14     24.00
    9.3324     30.83     29.75    -20.45     24.00
    9.3425     31.51     29.78    -19.79     24.00
    9.3527     30.83     29.80    -20.50     24.00
    9.3629     31.98     29.83    -19.37     24.00
    9.3730     30.54     29.86    -20.84     24.00
    9.3832     32.07     29.88    -19.34     24.00
    9.3934     31.73     29.91    -19.70     24.00
    9.4035     30.62     29.94    -20.84     24.00
    9.4137     31.16     29.96    -20.33     24.00
    9.4239     31.55     29.99    -19.96     24.00
    9.4340     31.04     30.02    -20.50     24.00
    9.4442     31.12     30.04    -20.45     24.00
    9.4544     31.60     30.07    -19.99     24.00
    9.4645     30.39     30.10    -21.23     24.00
    9.4747     31.86     30.12    -19.79     24.00
    9.4848     31.87     30.15    -19.81     24.00
    9.4950     31.26     30.18    -20.44     24.00
    9.5052     31.17     30.21    -20.56     24.00
    9.5153     30.61     30.23    -21.15     24.00
    9.5255     31.57     30.26    -20.22     24.00
    9.5357     31.40     30.29    -20.41     24.00
    9.5458     31.38     30.32    -20.46     24.00
    9.5560     31.65     30.35    -20.22     24.00
    9.5662     30.74     30.37    -21.16     24.00
    9.5763     32.24     30.40    -19.69     24.00
    9.5865     31.46     30.43    -20.50     24.00
    9.5967     30.99     30.46    -20.99     24.00
    9.6068     31.54     30.49    -20.47     24.00
    9.6170     31.01     30.52    -21.03     24.00
    9.6271     32.52     30.55    -19.55     24.00
    9.6373     31.99     30.58    -20.11     24.00
    9.6475     30.45     30.60    -21.68     24.00
    9.6576     31.19     30.63    -20.97     24.00
    9.6678     31.51     30.66    -20.68     24.00
    9.6780     31.36     30.69    -20.86     24.00
    9.6881     31.19     30.72    -21.06     24.00
    9.6983     31.77     30.75    -20.51     24.00
    9.7085     31.51     30.78    -20.80     24.00
    9.7186     31.91     30.81    -20.43     24.00
    9.7288     32.13     30.84    -20.24     24.00
    9.7390     31.59     30.87    -20.81     24.00
    9.7491     31.71     30.90    -20.72     24.00
    9.7593     31.52     30.93    -20.94     24.00
    9.7694     32.20     30.96    -20.29     24.00
    9.7796     31.87     30.99    -20.65     24.00
    9.7898     31.59     31.02    -20.96     24.00
    9.7999     32.69     31.06    -19.89     24.00
    9.8101     32.19     31.09    -20.42     24.00
    9.8203     32.41     31.12    -20.23     24.00
    9.8304     32.43     31.15    -20.24     24.00
    9.8406     32.02     31.18    -20.68     24.00
    9.8508     32.18     31.21    -20.56     24.00
    9.8609     32.79     31.24    -19.98     24.00
    9.8711     32.26     31.28    -20.54     24.00
    9.8813     31.93     31.31    -20.90     24.00
    9.8914     31.56     31.34    -21.30     24.00
    9.9016     32.39     31.37    -20.51     24.00
    9.9118     31.96     31.40    -20.97     24.00
    9.9219     32.05     31.44    -20.91     24.00
    9.9321     32.15     31.47    -20.84     24.00
    9.9422     32.40     31.50    -20.62     24.00
    9.9524     32.04     31.53    -21.02     24.00
    9.9626     32.32     31.57    -20.77     24.00
    9.9727     32.12     31.60    -21.00     24.00
    9.9829     33.16     31.63    -20.00     24.00
    9.9931     33.37     31.67    -19.82     24.00
   10.0032     32.29     31.70    -20.93     24.00
   10.0134     32.72     31.73    -20.54     24.00
   10.0236     32.84     31.77    -20.45     24.00
   10.0337     33.40     31.80    -19.92     24.00
   10.0439     32.79     31.83    -20.57     24.00
   10.0541     33.41     31.87    -19.98     24.00
   10.0642     33.63     31.90    -19.79     24.00
   10.0744     32.17     31.94    -21.29     24.00
   10.0845     33.22     31.97    -20.27     24.00
   10.0947     33.11     32.00    -20.42     24.00
   10.1049     32.84     32.04    -20.72     24.00
   10.1150     33.62     32.07    -19.98     24.00
   10.1252     32.57     32.11    -21.06     24.00
   10.1354     32.76     32.14    -20.91     24.00
   10.1455     33.71     32.18    -19.99     24.00
   10.1557     33.32     32.21    -20.42     24.00
   10.1659     32.99     32.25    -20.78     24.00
   10.1760     32.77     32.28    -21.04     24.00
   10.1862     33.32     32.32    -20.52     24.00
   10.1964     32.79     32.35    -21.09     24.00
   10.2065     33.30     32.39    -20.61     24.00
   10.2167     33.16     32.43    -20.79     24.00
   10.2269     33.23     32.46    -20.76     24.00
   10.2370     33.01     32.50    -21.01     24.00
   10.2472     33.04     32.54    -21.02     24.00
   10.2573     34.02     32.57    -20.08     24.00
   10.2675     34.08     32.61    -20.05     24.00
   10.2777     34.10     32.65    -20.07     24.00
   10.2878     34.21     32.68    -20.00     24.00
   10.2980     34.39     32.72    -19.85     24.00
   10.3082     33.43     32.76    -20.85     24.00
   10.3183     33.48     32.79    -20.84     24.00
   10.3285     33.37     32.83    -20.98     24.00
   10.3387     32.70     32.87    -21.69     24.00
   10.3488     33.79     32.91    -20.64     24.00
   10.3590     34.04     32.94    -20.43     24.00
   10.3692     33.85     32.98    -20.66     24.00
   10.3793     33.08     33.02    -21.46     24.00
   10.3895     33.91     33.06    -20.67     24.00
   10.3996     33.55     33.10    -21.07     24.00
   10.4098     33.98     33.13    -20.68     24.00
   10.4200     34.02     33.17    -20.68     24.00
   10.4301     33.52     33.21    -21.22     24.00
   10.4403     34.40     33.25    -20.37     24.00
   10.4505     34.02     33.29    -20.79     24.00
   10.4606     33.97     33.33    -20.88     24.00
   10.4708     34.74     33.37    -20.15     24.00
   10.4810     34.09     33.41    -20.84     24.00
   10.4911     34.29     33.45    -20.68     24.00
   10.5013     34.07     33.49    -20.94     24.00
   10.5115     34.62     33.53    -20.43     24.00
   10.5216     34.46     33.57    -20.63     24.00
   10.5318     33.85     33.61    -21.28     24.00
   10.5420     35.20     33.65    -19.97     24.00
   10.5521     34.07     33.69    -21.14     24.00
   10.5623     33.97     33.73    -21.28     24.00
   10.5724     34.20     33.77    -21.09     24.00
   10.5826     34.88     33.81    -20.45     24.00
   10.5928     34.35     33.85    -21.02     24.00
   10.6029     34.39     33.89    -21.02     24.00
   10.6131     34.62     33.93    -20.84     24.00
   10.6233     34.09     33.97    -21.41     24.00
   10.6334     34.46     34.01    -21.08     24.00
   10.6436     34.91     34.06    -20.67     24.00
   10.6538     34.09     34.10    -21.53     24.00
   10.6639     34.78     34.14    -20.88     24.00
   10.6741     35.08     34.18    -20.62     24.00
   10.6843     34.84     34.22    -20.91     24.00
   10.6944     33.88     34.27    -21.91     24.00
   10.7046     34.78     34.31    -21.05     24.00
   10.7147     35.86     34.35    -20.01     24.00
   10.7249     35.12     34.39    -20.80     24.00
   10.7351     34.27     34.44    -21.69     24.00
   10.7452     34.76     34.48    -21.24     24.00
   10.7554     35.16     34.52    -20.89     24.00
   10.7656     34.16     34.56    -21.93     24.00
   10.7757     35.34     34.61    -20.79     24.00
   10.7859     35.68     34.65    -20.50     24.00
   10.7961     35.49     34.70    -20.73     24.00
   10.8062     35.12     34.74    -21.14     24.00
   10.8164     35.78     34.78    -20.53     24.00
   10.8266     34.97     34.83    -21.38     24.00
   10.8367     34.65     34.87    -21.75     24.00
   10.8469     35.12     34.92    -21.32     24.00
   10.8571     35.19     34.96    -21.29     24.00
   10.8672     34.90     35.00    -21.63     24.00
   10.8774     35.75     35.05    -20.82     24.00
   10.8875     34.93     35.09    -21.69     24.00
   10.8977     35.83     35.14    -20.83     24.00
   10.9079     36.41     35.19    -20.30     24.00
   10.9180     35.80     35.23    -20.95     24.00
   10.9282     34.83     35.28    -21.97     24.00
   10.9384     35.65     35.32    -21.20     24.00
   10.9485     36.55     35.37    -20.34     24.00
   10.9587     35.82     35.41    -21.12     24.00
   10.9689     35.47     35.46    -21.51     24.00
   10.9790     35.74     35.51    -21.29     24.00
   10.9892     35.54     35.55    -21.54     24.00
   10.9994     35.91     35.60    -21.21     24.00
   11.0095     35.50     35.65    -21.67     24.00
   11.0197     36.45     35.69    -20.77     24.00
   11.0298     35.75     35.74    -21.51     24.00
   11.0400     35.88     35.79    -21.43     24.00
   11.0502     35.26     35.83    -22.10     24.00
   11.0603     35.96     35.88    -21.44     24.00
   11.0705     36.03     35.93    -21.42     24.00
   11.0807     35.93     35.98    -21.57     24.00
   11.0908     35.94     36.02    -21.61     24.00
   11.1010     36.58     36.07    -21.02     24.00
   11.1112     37.12     36.12    -20.52     24.00
   11.1213     36.28     36.17    -21.41     24.00
   11.1315     36.29     36.22    -21.45     24.00
   11.1417     37.03     36.27    -20.76     24.00
   11.1518     36.23     36.31    -21.61     24.00
   11.1620     35.71     36.36    -22.18     24.00
   11.1722     37.25     36.41    -20.69     24.00
   11.1823     36.66     36.46    -21.33     24.00
   11.1925     35.99     36.51    -22.05     24.00
   11.2026     36.34     36.56    -21.74     24.00
   11.2128     36.63     36.61    -21.50     24.00
   11.2230     35.99     36.66    -22.19     24.00
   11.2331     36.72     36.71    -21.51     24.00
   11.2433     37.32     36.76    -20.96     24.00
   11.2535     35.33     36.81    -23.00     24.00
   11.2636     37.48     36.86    -20.90     24.00
   11.2738     36.93     36.91    -21.51     24.00
   11.2840     36.66     36.96    -21.83     24.00
   11.2941     37.74     37.01    -20.80     24.00
   11.3043     37.25     37.06    -21.34     24.00
   11.3145     36.60     37.12    -22.04     24.00
   11.3246     37.15     37.17    -21.54     24.00
   11.3348     38.09     37.22    -20.65     24.00
   11.3449     36.79     37.27    -22.00     24.00
   11.3551     37.10     37.32    -21.74     24.00
   11.3653     37.60     37.37    -21.30     24.00
   11.3754     37.40     37.42    -21.55     24.00
   11.3856     37.51     37.48    -21.49     24.00
   11.3958     37.55     37.53    -21.50     24.00
   11.4059     37.75     37.58    -21.36     24.00
   11.4161     37.16     37.63    -22.00     24.00
   11.4263     37.49     37.69    -21.72     24.00
   11.4364     37.79     37.74    -21.47     24.00
   11.4466     37.87     37.79    -21.45     24.00
   11.4568     38.09     37.85    -21.28     24.00
   11.4669     36.96     37.90    -22.46     24.00
   11.4771     37.88     37.95    -21.60     24.00
   11.4873     38.03     38.01    -21.50     24.00
   11.4974     37.64     38.06    -21.95     24.00
   11.5076     37.61     38.12    -22.03     24.00
   11.5177     38.26     38.17    -21.43     24.00
   11.5279     37.27     38.22    -22.48     24.00
   11.5381     38.24     38.28    -21.56     24.00
   11.5482     38.47     38.33    -21.39     24.00
   11.5584     38.39     38.39    -21.52     24.00
   11.5686     37.84     38.44    -22.13     24.00
   11.5787     38.51     38.50    -21.51     24.00
   11.5889     38.48     38.55    -21.60     24.00
   11.5991     38.16     38.61    -21.97     24.00
   11.6092     37.84     38.66    -22.35     24.00
   11.6194     38.07     38.72    -22.17     24.00
   11.6296     37.74     38.78    -22.56     24.00
   11.6397     38.91     38.83    -21.45     24.00
   11.6499     37.54     38.89    -22.87     24.00
   11.6600     38.23     38.94    -22.24     24.00
   11.6702     38.45     39.00    -22.08     24.00
   11.6804     38.95     39.06    -21.63     24.00
   11.6905     38.55     39.11    -22.09     24.00
   11.7007     38.68     39.17    -22.02     24.00
   11.7109     38.95     39.23    -21.80     24.00
   11.7210     38.45     39.29    -22.36     24.00
   11.7312     39.52     39.34    -21.35     24.00
   11.7414     39.16     39.40    -21.77     24.00
   11.7515     38.16     39.46    -22.82     24.00
   11.7617     38.55     39.52    -22.49     24.00
   11.7719     39.22     39.57    -21.88     24.00
   11.7820     38.87     39.63    -22.29     24.00
   11.7922     38.76     39.69    -22.46     24.00
   11.8023     38.41     39.75    -22.86     24.00
   11.8125     38.43     39.81    -22.90     24.00
   11.8227     39.74     39.87    -21.65     24.00
   11.8328     39.35     39.93    -22.10     24.00
   11.8430     39.22     39.99    -22.29     24.00
   11.8532     39.00     40.04    -22.57     24.00
   11.8633     39.15     40.10    -22.48     24.00
   11.8735     39.39     40.16    -22.30     24.00
   11.8837     39.73     40.22    -22.02     24.00
   11.8938     39.43     40.28    -22.38     24.00
   11.9040     40.18     40.34    -21.69     24.00
   11.9142     39.29     40.40    -22.64     24.00
   11.9243     39.58     40.46    -22.41     24.00
   11.9345     39.62     40.52    -22.43     24.00
   11.9447     39.56     40.59    -22.55     24.00
   11.9548     39.89     40.65    -22.28     24.00
   11.9650     40.11     40.71    -22.12     24.00
   11.9751     39.28     40.77    -23.01     24.00
   11.9853     40.71     40.83    -21.64     24.00
   11.9955     40.75     40.89    -21.67     24.00
   12.0056     40.38     40.95    -22.10     24.00
   12.0158     40.70     41.01    -21.84     24.00
   12.0260     39.71     41.08    -22.89     24.00
   12.0361     40.13     41.14    -22.53     24.00
   12.0463     40.52     41.20    -22.21     24.00
   12.0565     39.46     41.26    -23.33     24.00
   12.0666     40.37     41.33    -22.48     24.00
   12.0768     40.34     41.39    -22.57     24.00
   12.0870     40.12     41.45    -22.86     24.00
   12.0971     40.18     41.51    -22.86     24.00
   12.1073     39.77     41.58    -23.33     24.00
   12.1174     41.18     41.64    -21.99     24.00
   12.1276     40.87     41.70    -22.36     24.00
   12.1378     40.48     41.77    -22.81     24.00
   12.1479     42.02     41.83    -21.34     24.00
   12.1581     41.13     41.90    -22.29     24.00
   12.1683     41.30     41.96    -22.18     24.00
   12.1784     41.32     42.02    -22.23     24.00
   12.1886     41.24     42.09    -22.37     24.00
   12.1988     40.51     42.15    -23.17     24.00
   12.2089     40.87     42.22    -22.87     24.00
   12.2191     41.60     42.28    -22.21     24.00
   12.2293     42.18     42.35    -21.69     24.00
   12.2394     40.27     42.41    -23.67     24.00
   12.2496     41.50     42.48    -22.50     24.00
   12.2598     41.01     42.55    -23.06     24.00
   12.2699     41.40     42.61    -22.73     24.00
   12.2801     40.99     42.68    -23.21     24.00
   12.2902     42.09     42.74    -22.18     24.00
   12.3004     43.01     42.81    -21.32     24.00
   12.3106     42.49     42.88    -21.91     24.00
   12.3207     41.83     42.94    -22.64     24.00
   12.3309     42.20     43.01    -22.33     24.00
   12.3411     42.46     43.08    -22.14     24.00
   12.3512     42.49     43.14    -22.18     24.00
   12.3614     41.39     43.21    -23.34     24.00
   12.3716     41.73     43.28    -23.07     24.00
   12.3817     42.61     43.34    -22.26     24.00
   12.3919     41.41     43.41    -23.53     24.00
   12.4021     42.46     43.48    -22.54     24.00
   12.4122     41.76     43.55    -23.31     24.00
   12.4224     42.48     43.62    -22.66     24.00
   12.4325     42.93     43.68    -22.28     24.00
   12.4427     42.92     43.75    -22.36     24.00
   12.4529     41.63     43.82    -23.71     24.00
   12.4630     42.64     43.89    -22.77     24.00
   12.4732     43.21     43.96    -22.27     24.00
   12.4834     43.68     44.03    -21.87     24.00
   12.4935     42.33     44.10    -23.29     24.00
   12.5037     43.17     44.17    -22.52     24.00
   12.5139     43.18     44.23    -22.58     24.00
   12.5240     42.99     44.30    -22.84     24.00
   12.5342     44.00     44.37    -21.90     24.00
   12.5444     42.60     44.44    -23.37     24.00
   12.5545     44.78     44.51    -21.26     24.00
   12.5647     43.83     44.58    -22.28     24.00
   12.5749     43.61     44.65    -22.57     24.00
   12.5850     44.59     44.73    -21.66     24.00
   12.5952     43.08     44.80    -23.24     24.00
   12.6053     43.13     44.87    -23.26     24.00
   12.6155     44.15     44.94    -22.31     24.00
   12.6257     42.69     45.01    -23.84     24.00
   12.6358     43.47     45.08    -23.13     24.00
   12.6460     44.37     45.15    -22.31     24.00
   12.6562     44.70     45.22    -22.05     24.00
   12.6663     44.25     45.29    -22.57     24.00
   12.6765     44.24     45.37    -22.65     24.00
   12.6867     43.73     45.44    -23.23     24.00
   12.6968     44.20     45.51    -22.83     24.00
   12.7070     44.75     45.58    -22.36     24.00
   12.7172     44.98     45.66    -22.20     24.00
   12.7273     44.45     45.73    -22.80     24.00
   12.7375     43.83     45.80    -23.50     24.00
   12.7476     45.23     45.87    -22.17     24.00
   12.7578     45.15     45.95    -22.32     24.00
   12.7680     44.40     46.02    -23.15     24.00
   12.7781     44.87     46.09    -22.75     24.00
   12.7883     45.22     46.17    -22.47     24.00
   12.7985     44.87     46.24    -22.90     24.00
   12.8086     46.37     46.32    -21.47     24.00
   12.8188     44.95     46.39    -22.96     24.00
   12.8290     44.98     46.46    -23.01     24.00
   12.8391     45.01     46.54    -23.05     24.00
   12.8493     45.09     46.61    -23.05     24.00
   12.8595     45.96     46.69    -22.25     24.00
   12.8696     45.76     46.76    -22.53     24.00
   12.8798     45.62     46.84    -22.74     24.00
   12.8900     45.60     46.91    -22.84     24.00
   12.9001     46.01     46.99    -22.50     24.00
   12.9103     45.56     47.06    -23.03     24.00
   12.9204     46.21     47.14    -22.45     24.00
   12.9306     45.26     47.21    -23.48     24.00
   12.9408     45.98     47.29    -22.83     24.00
   12.9509     45.77     47.37    -23.12     24.00
   12.9611     45.74     47.44    -23.23     24.00
   12.9713     45.80     47.52    -23.24     24.00
   12.9814     47.27     47.59    -21.85     24.00
   12.9916     46.01     47.67    -23.19     24.00
   13.0018     47.16     47.75    -22.11     24.00
   13.0119     46.96     47.83    -22.39     24.00
   13.0221     46.68     47.90    -22.75     24.00
   13.0323     46.40     47.98    -23.10     24.00
   13.0424     47.24     48.06    -22.34     24.00
   13.0526     46.61     48.13    -23.05     24.00
   13.0627     46.41     48.21    -23.33     24.00
   13.0729     47.46     48.29    -22.35     24.00
   13.0831     47.41     48.37    -22.48     24.00
   13.0932     47.63     48.45    -22.34     24.00
   13.1034     47.77     48.52    -22.28     24.00
   13.1136     47.52     48.60    -22.61     24.00
   13.1237     47.60     48.68    -22.60     24.00
   13.1339     46.44     48.76    -23.84     24.00
   13.1441     47.95     48.84    -22.41     24.00
   13.1542     47.88     48.92    -22.56     24.00
   13.1644     47.49     49.00    -23.03     24.00
   13.1746     48.06     49.08    -22.54     24.00
   13.1847     47.92     49.16    -22.76     24.00
   13.1949     48.29     49.24    -22.47     24.00
   13.2051     47.39     49.32    -23.45     24.00
   13.2152     46.51     49.39    -24.41     24.00
   13.2254     47.70     49.48    -23.30     24.00
   13.2355     48.73     49.55    -22.35     24.00
   13.2457     49.35     49.64    -21.81     24.00
   13.2559     49.07     49.72    -22.17     24.00
   13.2660     48.91     49.80    -22.41     24.00
   13.2762     48.95     49.88    -22.45     24.00
   13.2864     48.20     49.96    -23.28     24.00
   13.2965     48.59     50.04    -22.97     24.00
   13.3067     49.08     50.12    -22.56     24.00
   13.3169     49.67     50.20    -22.06     24.00
   13.3270     49.25     50.28    -22.56     24.00
   13.3372     48.52     50.37    -23.37     24.00
   13.3474     49.73     50.45    -22.24     24.00
   13.3575     49.74     50.53    -22.31     24.00
   13.3677     50.19     50.61    -21.95     24.00
   13.3778     49.27     50.69    -22.95     24.00
   13.3880     49.16     50.78    -23.14     24.00
   13.3982     50.17     50.86    -22.21     24.00
   13.4083     50.52     50.94    -21.95     24.00
   13.4185     49.34     51.02    -23.21     24.00
   13.4287     50.52     51.11    -22.11     24.00
   13.4388     50.93     51.19    -21.78     24.00
   13.4490     50.54     51.27    -22.26     24.00
   13.4592     48.86     51.36    -24.02     24.00
   13.4693     50.33     51.44    -22.64     24.00
   13.4795     49.89     51.53    -23.16     24.00
   13.4897     49.63     51.61    -23.50     24.00
   13.4998     49.85     51.69    -23.37     24.00
   13.5100     51.41     51.78    -21.89     24.00
   13.5201     50.87     51.86    -22.52     24.00
   13.5303     51.70     51.95    -21.77     24.00
   13.5405     50.08     52.03    -23.48     24.00
   13.5506     51.46     52.12    -22.18     24.00
   13.5608     51.16     52.20    -22.57     24.00
   13.5710     51.73     52.29    -22.08     24.00
   13.5811     51.49     52.37    -22.41     24.00
   13.5913     51.30     52.46    -22.68     24.00
   13.6015     52.22     52.54    -21.85     24.00
   13.6116     52.13     52.63    -22.02     24.00
   13.6218     51.70     52.72    -22.54     24.00
   13.6320     51.00     52.80    -23.33     24.00
   13.6421     51.09     52.89    -23.32     24.00
   13.6523     53.80     52.97    -20.70     24.00
   13.6625     51.87     53.06    -22.72     24.00
   13.6726     52.37     53.15    -22.30     24.00
   13.6828     51.82     53.23    -22.94     24.00
   13.6929     53.15     53.32    -21.70     24.00
   13.7031     51.95     53.41    -22.98     24.00
   13.7133     52.97     53.50    -22.05     24.00
   13.7234     52.40     53.58    -22.71     24.00
   13.7336     52.62     53.67    -22.58     24.00
   13.7438     52.89     53.76    -22.39     24.00
   13.7539     52.96     53.85    -22.41     24.00
   13.7641     53.68     53.94    -21.78     24.00
   13.7743     52.60     54.03    -22.95     24.00
   13.7844     51.94     54.11    -23.70     24.00
   13.7946     54.11     54.20    -21.62     24.00
   13.8048     53.18     54.29    -22.64     24.00
   13.8149     53.34     54.38    -22.56     24.00
   13.8251     54.71     54.47    -21.28     24.00
   13.8352     53.74     54.56    -22.34     24.00
   13.8454     55.10     54.65    -21.07     24.00
   13.8556     53.57     54.74    -22.69     24.00
   13.8657     53.89     54.83    -22.46     24.00
   13.8759     54.91     54.92    -21.53     24.00
   13.8861     55.63     55.01    -20.90     24.00
   13.8962     54.64     55.10    -21.99     24.00
   13.9064     54.74     55.19    -21.98     24.00
   13.9166     54.87     55.28    -21.94     24.00
   13.9267     55.72     55.37    -21.18     24.00
   13.9369     55.26     55.47    -21.73     24.00
   13.9471     55.91     55.56    -21.17     24.00
   13.9572     56.11     55.65    -21.06     24.00
   13.9674     54.88     55.74    -22.39     24.00
   13.9776     55.53     55.83    -21.83     24.00
   13.9877     55.89     55.93    -21.56     24.00
   13.9979     55.38     56.02    -22.16     24.00
   14.0080     56.59     56.11    -21.05     24.00
   14.0182     55.52     56.20    -22.21     24.00
   14.0284     55.98     56.30    -21.84     24.00
   14.0385     56.29     56.39    -21.63     24.00
   14.0487     55.74     56.49    -22.27     24.00
   14.0589     56.12     56.58    -21.98     24.00
   14.0690     57.14     56.67    -21.06     24.00
   14.0792     57.59     56.77    -20.70     24.00
   14.0894     56.13     56.86    -22.26     24.00
   14.0995     56.28     56.96    -22.20     24.00
   14.1097     56.74     57.05    -21.84     24.00
   14.1199     56.01     57.15    -22.66     24.00
   14.1300     57.38     57.24    -21.39     24.00
   14.1402     58.20     57.34    -20.66     24.00
   14.1503     56.36     57.44    -22.60     24.00
   14.1605     58.07     57.53    -20.99     24.00
   14.1707     57.16     57.63    -21.99     24.00
   14.1808     58.50     57.73    -20.75     24.00
   14.1910     56.40     57.82    -22.95     24.00
   14.2012     57.41     57.92    -22.03     24.00
   14.2113     58.12     58.02    -21.42     24.00
   14.2215     58.58     58.12    -21.06     24.00
   14.2317     57.26     58.21    -22.48     24.00
   14.2418     58.11     58.31    -21.73     24.00
   14.2520     59.49     58.41    -20.44     24.00
   14.2622     58.93     58.51    -21.10     24.00
   14.2723     58.48     58.61    -21.65     24.00
   14.2825     59.71     58.71    -20.52     24.00
   14.2927     59.31     58.81    -21.02     24.00
   14.3028     58.38     58.91    -22.05     24.00
   14.3130     60.40     59.01    -20.13     24.00
   14.3231     58.42     59.11    -22.21     24.00
   14.3333     59.39     59.21    -21.35     24.00
   14.3435     59.46     59.31    -21.38     24.00
   14.3536     60.56     59.41    -20.38     24.00
   14.3638     60.66     59.52    -20.38     24.00
   14.3740     60.15     59.62    -20.99     24.00
   14.3841     59.69     59.72    -21.56     24.00
   14.3943     61.20     59.83    -20.15     24.00
   14.4045     60.09     59.93    -21.36     24.00
   14.4146     60.76     60.03    -20.80     24.00
   14.4248     59.70     60.14    -21.96     24.00
   14.4350     60.77     60.24    -21.00     24.00
   14.4451     61.27     60.35    -20.60     24.00
   14.4553     60.58     60.45    -21.40     24.00
   14.4654     61.96     60.56    -20.12     24.00
   14.4756     60.24     60.66    -21.95     24.00
   14.4858     61.08     60.77    -21.21     24.00
   14.4959     62.45     60.88    -19.95     24.00
   14.5061     62.39     60.98    -20.12     24.00
   14.5163     61.85     61.09    -20.77     24.00
   14.5264     63.28     61.20    -19.44     24.00
   14.5366     62.97     61.31    -19.86     24.00
   14.5468     61.03     61.42    -21.91     24.00
   14.5569     62.14     61.53    -20.91     24.00
   14.5671     61.76     61.64    -21.40     24.00
   14.5773     61.71     61.75    -21.56     24.00
   14.5874     63.19     61.86    -20.19     24.00
   14.5976     62.96     61.97    -20.53     24.00
   14.6078     63.66     62.08    -19.94     24.00
   14.6179     63.76     62.19    -19.96     24.00
   14.6281     62.20     62.30    -21.63     24.00
   14.6382     63.04     62.42    -20.90     24.00
   14.6484     65.22     62.53    -18.83     24.00
   14.6586     64.25     62.65    -19.92     24.00
   14.6687     64.32     62.76    -19.96     24.00
   14.6789     64.74     62.87    -19.66     24.00
   14.6891     64.23     62.99    -20.28     24.00
   14.6992     64.21     63.11    -20.42     24.00
   14.7094     63.48     63.22    -21.27     24.00
   14.7196     64.62     63.34    -20.25     24.00
   14.7297     65.85     63.46    -19.13     24.00
   14.7399     64.57     63.58    -20.53     24.00
   14.7501     64.67     63.70    -20.55     24.00
   14.7602     65.80     63.82    -19.54     24.00
   14.7704     65.43     63.94    -20.03     24.00
   14.7805     64.81     64.06    -20.77     24.00
   14.7907     65.80     64.18    -19.90     24.00
   14.8009     67.11     64.30    -18.71     24.00
   14.8110     64.30     64.42    -21.65     24.00
   14.8212     65.62     64.55    -20.45     24.00
   14.8314     68.16     64.67    -18.03     24.00
   14.8415     66.94     64.79    -19.38     24.00
   14.8517     66.13     64.92    -20.31     24.00
   14.8619     66.48     65.05    -20.09     24.00
   14.8720     67.26     65.17    -19.44     24.00
   14.8822     66.82     65.30    -20.00     24.00
   14.8924     68.57     65.43    -18.38     24.00
   14.9025     67.49     65.56    -19.59     24.00
   14.9127     65.88     65.69    -21.33     24.00
   14.9229     67.24     65.82    -20.10     24.00
   14.9330     66.38     65.95    -21.09     24.00
   14.9432     67.54     66.08    -20.06     24.00
   14.9533     67.60     66.21    -20.13     24.00
   14.9635     67.38     66.34    -20.49     24.00
   14.9737     67.87     66.48    -20.13     24.00
   14.9838     68.40     66.61    -19.73     24.00
   14.9940     67.31     66.75    -20.96     24.00
   15.0042     70.02     66.88    -18.39     24.00
   15.0143     68.38     67.02    -20.16     24.00
   15.0245     68.68     67.16    -20.00     24.00
   15.0347     69.46     67.30    -19.36     24.00
   15.0448     69.32     67.44    -19.64     24.00
   15.0550     70.49     67.58    -18.61     24.00
   15.0652     69.62     67.72    -19.62     24.00
   15.0753     69.08     67.86    -20.30     24.00
   15.0855     69.93     68.00    -19.60     24.00
   15.0956     69.51     68.15    -20.16     24.00
   15.1058     70.74     68.29    -19.08     24.00
   15.1160     71.41     68.44    -18.55     24.00
   15.1261     70.65     68.58    -19.46     24.00
   15.1363     69.95     68.73    -20.31     24.00
   15.1465     71.29     68.88    -19.11     24.00
   15.1566     70.91     69.03    -19.64     24.00
   15.1668     71.85     69.18    -18.85     24.00
   15.1770     72.21     69.33    -18.65     24.00
   15.1871     72.49     69.48    -18.52     24.00
   15.1973     72.44     69.64    -18.72     24.00
   15.2075     72.22     69.79    -19.10     24.00
   15.2176     70.81     69.95    -20.66     24.00
   15.2278     70.93     70.10    -20.70     24.00
   15.2380     70.23     70.26    -21.55     24.00
   15.2481     72.13     70.42    -19.81     24.00
   15.2583     73.02     70.58    -19.08     24.00
   15.2684     72.14     70.74    -20.12     24.00
   15.2786     72.86     70.90    -19.56     24.00
   15.2888     73.21     71.06    -19.38     24.00
   15.2989     72.48     71.22    -20.27     24.00
   15.3091     74.84     71.39    -18.07     24.00
   15.3193     73.65     71.56    -19.43     24.00
   15.3294     74.55     71.72    -18.70     24.00
   15.3396     72.80     71.89    -20.61     24.00
   15.3498     75.00     72.06    -18.58     24.00
   15.3599     74.20     72.23    -19.55     24.00
   15.3701     75.74     72.40    -18.19     24.00
   15.3803     74.19     72.57    -19.91     24.00
   15.3904     73.94     72.75    -20.33     24.00
   15.4006     73.98     72.92    -20.47     24.00
   15.4107     76.77     73.10    -17.85     24.00
   15.4209     75.56     73.27    -19.24     24.00
   15.4311     76.06     73.45    -18.92     24.00
   15.4412     77.16     73.63    -18.00     24.00
   15.4514     76.38     73.81    -18.96     24.00
   15.4616     76.46     73.99    -19.06     24.00
   15.4717     77.54     74.18    -18.16     24.00
   15.4819     75.35     74.36    -20.54     24.00
   15.4921     77.49     74.55    -18.58     24.00
   15.5022     76.25     74.73    -20.01     24.00
   15.5124     75.29     74.92    -21.15     24.00
   15.5226     76.41     75.11    -20.22     24.00
   15.5327     77.36     75.30    -19.46     24.00
   15.5429     76.89     75.49    -20.12     24.00
   15.5530     77.91     75.68    -19.30     24.00
   15.5632     78.66     75.88    -18.74     24.00
   15.5734     77.98     76.07    -19.62     24.00
   15.5835     79.32     76.27    -18.47     24.00
   15.5937     78.60     76.47    -19.39     24.00
   15.6039     78.49     76.66    -19.70     24.00
   15.6140     78.76     76.86    -19.63     24.00
   15.6242     79.66     77.06    -18.93     24.00
   15.6344     80.02     77.27    -18.77     24.00
   15.6445     79.13     77.47    -19.86     24.00
   15.6547     81.12     77.68    -18.08     24.00
   15.6649     79.31     77.88    -20.10     24.00
   15.6750     81.60     78.09    -18.01     24.00
   15.6852     79.79     78.30    -20.03     24.00
   15.6954     80.69     78.51    -19.34     24.00
   15.7055     79.40     78.72    -20.84     24.00
   15.7157     80.91     78.93    -19.54     24.00
   15.7258     81.10     79.14    -19.57     24.00
   15.7360     81.35     79.36    -19.53     24.00
   15.7462     80.69     79.57    -20.41     24.00
   15.7563     80.60     79.79    -20.71     24.00
   15.7665     81.33     80.01    -20.20     24.00
   15.7767     81.91     80.23    -19.84     24.00
   15.7868     82.52     80.45    -19.45     24.00
   15.7970     80.06     80.67    -22.14     24.00
   15.8072     83.45     80.90    -18.97     24.00
   15.8173     82.83     81.12    -19.81     24.00
   15.8275     82.13     81.34    -20.74     24.00
   15.8377     82.65     81.57    -20.45     24.00
   15.8478     84.08     81.80    -19.24     24.00
   15.8580     82.75     82.03    -20.80     24.00
   15.8681     83.29     82.26    -20.49     24.00
   15.8783     84.04     82.49    -19.97     24.00
   15.8885     84.90     82.72    -19.34     24.00
   15.8986     83.30     82.95    -21.18     24.00
   15.9088     85.70     83.19    -19.01     24.00
   15.9190     84.37     83.42    -20.58     24.00
   15.9291     85.47     83.66    -19.71     24.00
   15.9393     84.63     83.90    -20.79     24.00
   15.9495     83.76     84.14    -21.90     24.00
   15.9596     85.48     84.38    -20.42     24.00
   15.9698     84.73     84.62    -21.41     24.00
   15.9800     86.31     84.86    -20.07     24.00
   15.9901     85.63     85.10    -21.00     24.00
   16.0003     85.61     85.35    -21.26     24.00
   16.0105     85.05     85.59    -22.07     24.00
   16.0206     86.63     85.84    -20.73     24.00
   16.0308     86.88     86.08    -20.73     24.00
   16.0409     86.70     86.33    -21.15     24.00
   16.0511     87.55     86.58    -20.55     24.00
   16.0613     87.16     86.83    -21.19     24.00
   16.0714     87.20     87.08    -21.40     24.00
   16.0816     87.91     87.33    -20.95     24.00
   16.0918     87.99     87.58    -21.12     24.00
   16.1019     88.59     87.84    -20.77     24.00
   16.1121     88.01     88.09    -21.60     24.00
   16.1223     87.32     88.35    -22.55     24.00
   16.1324     87.84     88.60    -22.28     24.00
   16.1426     90.74     88.86    -19.64     24.00
   16.1528     89.06     89.11    -21.58     24.00
   16.1629     88.33     89.37    -22.56     24.00
   16.1731     89.27     89.63    -21.88     24.00
   16.1832     90.13     89.88    -21.28     24.00
   16.1934     89.90     90.14    -21.77     24.00
   16.2036     89.82     90.40    -22.11     24.00
   16.2137     90.35     90.66    -21.84     24.00
   16.2239     89.53     90.93    -22.92     24.00
   16.2341     90.64     91.19    -22.07     24.00
   16.2442     92.32     91.45    -20.65     24.00
   16.2544     91.09     91.71    -22.14     24.00
   16.2646     92.04     91.97    -21.46     24.00
   16.2747     91.61     92.24    -22.15     24.00
   16.2849     91.49     92.50    -22.53     24.00
   16.2951     92.34     92.76    -21.95     24.00
   16.3052     92.36     93.03    -22.19     24.00
   16.3154     94.01     93.29    -20.81     24.00
   16.3256     92.40     93.56    -22.68     24.00
   16.3357     92.21     93.82    -23.13     24.00
   16.3459     93.63     94.09    -21.98     24.00
   16.3560     93.60     94.35    -22.27     24.00
   16.3662     93.14     94.62    -23.00     24.00
   16.3764     93.15     94.88    -23.26     24.00
   16.3865     95.56     95.15    -21.11     24.00
   16.3967     93.81     95.41    -23.13     24.00
   16.4069     94.54     95.68    -22.66     24.00
   16.4170     94.04     95.94    -23.43     24.00
   16.4272     94.84     96.21    -22.89     24.00
   16.4374     95.36     96.48    -22.64     24.00
   16.4475     96.86     96.74    -21.40     24.00
   16.4577     95.09     97.00    -23.44     24.00
   16.4679     97.13     97.27    -21.66     24.00
   16.4780     97.63     97.53    -21.43     24.00
   16.4882     97.66     97.80    -21.66     24.00
   16.4983     97.26     98.06    -22.32     24.00
   16.5085     98.87     98.32    -20.98     24.00
   16.5187     98.71     98.59    -21.40     24.00
   16.5288     96.30     98.85    -24.07     24.00
   16.5390     99.49     99.11    -21.15     24.00
   16.5492     98.91     99.37    -21.99     24.00
   16.5593     97.68     99.63    -23.48     24.00
   16.5695     98.76     99.89    -22.66     24.00
   16.5797     98.59    100.16    -23.09     24.00
   16.5898     98.60    100.41    -23.34     24.00
   16.6000     99.56    100.67    -22.64     24.00
   16.6102     98.93    100.93    -23.52     24.00
   16.6203    100.78    101.19    -21.93     24.00
   16.6305    102.32    101.44    -20.65     24.00
   16.6407     99.77    101.70    -23.45     24.00
   16.6508    100.84    101.95    -22.64     24.00
   16.6610    102.17    102.21    -21.56     24.00
   16.6711    100.34    102.46    -23.64     24.00
   16.6813    101.35    102.71    -22.88     24.00
   16.6915     99.91    102.96    -24.57     24.00
   16.7016    102.77    103.21    -21.96     24.00
   16.7118    100.81    103.46    -24.17     24.00
   16.7220    102.27    103.70    -22.96     24.00
   16.7321    101.68    103.95    -23.79     24.00
   16.7423    101.01    104.19    -24.71     24.00
   16.7525    103.49    104.44    -22.47     24.00
   16.7626    102.74    104.68    -23.46     24.00
   16.7728    102.02    104.92    -24.42     24.00
   16.7830    102.44    105.16    -24.24     24.00
   16.7931    104.07    105.39    -22.85     24.00
   16.8033    103.62    105.63    -23.53     24.00
   16.8134    104.30    105.86    -23.09     24.00
   16.8236    103.80    106.10    -23.82     24.00
   16.8338    103.13    106.33    -24.72     24.00
   16.8439    104.06    106.56    -24.02     24.00
   16.8541    105.35    106.79    -22.96     24.00
   16.8643    104.66    107.01    -23.88     24.00
   16.8744    105.02    107.24    -23.74     24.00
   16.8846    105.68    107.46    -23.30     24.00
   16.8948    105.47    107.68    -23.74     24.00
   16.9049    106.49    107.90    -22.93     24.00
   16.9151    106.51    108.12    -23.13     24.00
   16.9253    106.95    108.33    -22.91     24.00
   16.9354    107.31    108.55    -22.76     24.00
   16.9456    105.57    108.76    -24.71     24.00
   16.9558    106.84    108.97    -23.65     24.00
   16.9659    107.32    109.18    -23.38     24.00
   16.9761    104.99    109.38    -25.92     24.00
   16.9862    107.32    109.59    -23.79     24.00
   16.9964    107.70    109.79    -23.61     24.00
   17.0066    106.80    109.99    -24.71     24.00
   17.0167    107.05    110.19    -24.66     24.00
   17.0269    108.63    110.38    -23.28     24.00
   17.0371    108.64    110.58    -23.46     24.00
   17.0472    108.23    110.77    -24.06     24.00
   17.0574    109.26    110.96    -23.22     24.00
   17.0676    109.51    111.15    -23.16     24.00
   17.0777    110.52    111.33    -22.33     24.00
   17.0879    111.07    111.51    -21.97     24.00
   17.0981    107.59    111.70    -25.63     24.00
   17.1082    109.54    111.87    -23.86     24.00
   17.1184    111.29    112.05    -22.29     24.00
   17.1285    109.87    112.23    -23.88     24.00
   17.1387    109.88    112.40    -24.05     24.00
   17.1489    110.24    112.57    -23.86     24.00
   17.1590    109.49    112.74    -24.78     24.00
   17.1692    111.58    112.91    -22.86     24.00
   17.1794    112.21    113.08    -22.39     24.00
   17.1895    111.07    113.24    -23.70     24.00
   17.1997    111.61    113.41    -23.32     24.00
   17.2099    112.52    113.57    -22.57     24.00
   17.2200    112.04    113.73    -23.21     24.00
   17.2302    113.04    113.89    -22.37     24.00
   17.2404    111.22    114.05    -24.35     24.00
   17.2505    113.46    114.20    -22.27     24.00
   17.2607    114.51    114.36    -21.37     24.00
   17.2709    112.96    114.52    -23.08     24.00
   17.2810    114.71    114.67    -21.48     24.00
   17.2912    113.52    114.82    -22.83     24.00
   17.3013    115.51    114.98    -20.99     24.00
   17.3115    115.94    115.13    -20.71     24.00
   17.3217    115.32    115.29    -21.49     24.00
   17.3318    114.48    115.44    -22.48     24.00
   17.3420    116.28    115.59    -20.84     24.00
   17.3522    116.07    115.75    -21.20     24.00
   17.3623    115.95    115.91    -21.48     24.00
   17.3725    114.41    116.06    -23.18     24.00
   17.3827    115.73    116.22    -22.02     24.00
   17.3928    118.49    116.39    -19.42     24.00
   17.4030    116.29    116.55    -21.78     24.00
   17.4132    117.39    116.72    -20.85     24.00
   17.4233    117.84    116.89    -20.57     24.00
   17.4335    117.18    117.06    -21.40     24.00
   17.4436    117.04    117.24    -21.72     24.00
   17.4538    118.87    117.42    -20.07     24.00
   17.4640    119.55    117.61    -19.58     24.00
   17.4741    119.80    117.80    -19.52     24.00
   17.4843    120.80    117.99    -18.72     24.00
   17.4945    120.73    118.20    -18.99     24.00
   17.5046    119.96    118.41    -19.97     24.00
   17.5148    120.59    118.63    -19.56     24.00
   17.5250    120.69    118.85    -19.69     24.00
   17.5351    121.71    119.09    -18.90     24.00
   17.5453    122.75    119.33    -18.11     24.00
   17.5555    122.25    119.59    -18.86     24.00
   17.5656    121.80    119.85    -19.58     24.00
   17.5758    124.26    120.13    -17.39     24.00
   17.5859    123.33    120.42    -18.61     24.00
   17.5961    124.57    120.72    -17.67     24.00
   17.6063    125.90    121.04    -16.66     24.00
   17.6164    125.13    121.36    -17.76     24.00
   17.6266    126.99    121.71    -16.24     24.00
   17.6368    127.15    122.07    -16.45     24.00
   17.6469    126.80    122.45    -17.17     24.00
   17.6571    125.79    122.85    -18.58     24.00
   17.6673    127.13    123.26    -17.66     24.00
   17.6774    127.32    123.70    -17.90     24.00
   17.6876    128.01    124.15    -17.67     24.00
   17.6978    128.41    124.63    -17.75     24.00
   17.7079    127.79    125.13    -18.86     24.00
   17.7181    129.07    125.65    -18.11     24.00
   17.7283    130.69    126.20    -17.04     24.00
   17.7384    130.50    126.77    -17.80     24.00
   17.7486    130.47    127.37    -18.43     24.00
   17.7587    131.91    128.00    -17.61     24.00
   17.7689    130.20    128.65    -19.98     24.00
   17.7791    132.80    129.34    -18.06     24.00
   17.7892    134.73    130.05    -16.84     24.00
   17.7994    134.05    130.79    -18.27     24.00
   17.8096    134.26    131.57    -18.83     24.00
   17.8197    135.80    132.37    -18.10     24.00
   17.8299    137.04    133.22    -17.70     24.00
   17.8401    136.63    134.09    -18.99     24.00
   17.8502    138.49    135.00    -18.03     24.00
   17.8604    140.15    135.94    -17.32     24.00
   17.8706    139.45    136.93    -19.00     24.00
   17.8807    139.57    137.94    -19.89     24.00
   17.8909    141.12    138.99    -19.40     24.00
   17.9010    140.90    140.07    -20.70     24.00
   17.9112    142.70    141.20    -20.03     24.00
   17.9214    142.31    142.37    -21.59     24.00
   17.9315    143.59    143.57    -21.50     24.00
   17.9417    146.87    144.81    -19.47     24.00
   17.9519    146.18    146.10    -21.44     24.00
   17.9620    148.29    147.41    -20.64     24.00
   17.9722    150.65    148.77    -19.64     24.00
   17.9824    148.48    150.17    -23.21     24.00
   17.9925    151.31    151.59    -21.80     24.00
   18.0027    150.66    153.06    -23.93     24.00
   18.0129    153.52    154.57    -22.58     24.00
   18.0230    154.99    156.11    -22.64     24.00
   18.0332    155.45    157.69    -23.76     24.00
   18.0434    157.86    159.31    -22.97     24.00
   18.0535    157.42    160.94    -25.04     24.00
   18.0637    160.96    162.62    -23.19     24.00
   18.0738    160.65    164.32    -25.19     24.00
   18.0840    163.32    166.07    -24.27     24.00
   18.0942    167.32    167.84    -22.04     24.00
   18.1043    163.39    169.62    -27.75     24.00
   18.1145    166.41    171.45    -26.56     24.00
   18.1247    169.01    173.30    -25.81     24.00
   18.1348    171.19    175.15    -25.48     24.00
   18.1450    171.49    177.04    -27.07     24.00
   18.1552    174.68    178.95    -25.79     24.00
   18.1653    176.54    180.85    -25.83     24.00
   18.1755    174.65    182.79    -29.66     24.00
   18.1857    179.72    184.73    -26.54     24.00
   18.1958    182.57    186.67    -25.62     24.00
   18.2060    182.35    188.63    -27.80     24.00
   18.2161    186.34    190.57    -25.76     24.00
   18.2263    186.77    192.53    -27.29     24.00
   18.2365    185.72    194.49    -30.29     24.00
   18.2466    192.68    196.42    -25.27     24.00
   18.2568    194.20    198.37    -25.69     24.00
   18.2670    193.76    200.30    -28.06     24.00
   18.2771    197.30    202.19    -26.41     24.00
   18.2873    201.71    204.09    -23.90     24.00
   18.2975    202.10    205.96    -25.38     24.00
   18.3076    204.29    207.79    -25.02     24.00
   18.3178    209.32    209.60    -21.81     24.00
   18.3280    205.65    211.39    -27.26     24.00
   18.3381    211.84    213.12    -22.80     24.00
   18.3483    214.70    214.83    -21.65     24.00
   18.3585    213.51    216.50    -24.51     24.00
   18.3686    219.82    218.10    -19.81     24.00
   18.3788    219.47    219.67    -21.73     24.00
   18.3889    221.38    221.18    -21.32     24.00
   18.3991    225.99    222.64    -18.17     24.00
   18.4093    225.86    224.04    -19.71     24.00
   18.4194    227.24    225.37    -19.65     24.00
   18.4296    231.53    226.65    -16.64     24.00
   18.4398    232.85    227.85    -16.53     24.00
   18.4499    230.35    228.98    -20.15     24.00
   18.4601    235.86    230.04    -15.71     24.00
   18.4703    235.82    231.03    -16.73     24.00
   18.4804    235.69    231.93    -17.76     24.00
   18.4906    237.76    232.76    -16.52     24.00
   18.5008    241.31    233.50    -13.72     24.00
   18.5109    239.36    234.16    -16.32     24.00
   18.5211    244.74    234.73    -11.51     24.00
   18.5312    245.26    235.21    -11.48     24.00
   18.5414    239.86    235.61    -17.27     24.00
   18.5516    244.51    235.92    -12.93     24.00
   18.5617    244.13    236.13    -13.53     24.00
   18.5719    241.97    236.26    -15.81     24.00
   18.5821    242.77    236.29    -15.05     24.00
   18.5922    244.23    236.24    -13.53     24.00
   18.6024    244.35    236.09    -13.26     24.00
   18.6126    244.55    235.85    -12.82     24.00
   18.6227    242.10    235.52    -14.94     24.00
   18.6329    242.98    235.10    -13.64     24.00
   18.6431    240.43    234.59    -15.69     24.00
   18.6532    241.59    234.00    -13.94     24.00
   18.6634    238.99    233.33    -15.86     24.00
   18.6736    236.15    232.56    -17.94     24.00
   18.6837    236.82    231.73    -16.43     24.00
   18.6939    233.01    230.80    -19.32     24.00
   18.7040    230.93    229.81    -20.40     24.00
   18.7142    229.57    228.74    -20.69     24.00
   18.7244    227.12    227.59    -21.99     24.00
   18.7345    227.74    226.38    -20.17     24.00
   18.7447    225.91    225.10    -20.72     24.00
   18.7549    222.38    223.76    -22.90     24.00
   18.7650    220.00    222.37    -23.89     24.00
   18.7752    220.54    220.90    -21.89     24.00
   18.7854    217.20    219.39    -23.71     24.00
   18.7955    215.97    217.84    -23.39     24.00
   18.8057    215.27    216.22    -22.48     24.00
   18.8159    207.05    214.57    -29.04     24.00
   18.8260    208.42    212.89    -25.99     24.00
   18.8362    206.82    211.16    -25.86     24.00
   18.8463    202.90    209.41    -28.03     24.00
   18.8565    202.33    207.62    -26.81     24.00
   18.8667    203.54    205.80    -23.78     24.00
   18.8768    198.07    203.97    -27.43     24.00
   18.8870    195.80    202.11    -27.84     24.00
   18.8972    195.40    200.23    -26.36     24.00
   18.9073    190.92    198.36    -28.97     24.00
   18.9175    190.80    196.47    -27.19     24.00
   18.9277    189.12    194.56    -26.97     24.00
   18.9378    185.76    192.67    -28.44     24.00
   18.9480    183.56    190.77    -28.73     24.00
   18.9582    182.95    188.86    -27.44     24.00
   18.9683    181.79    186.99    -26.72     24.00
   18.9785    179.35    185.10    -27.27     24.00
   18.9887    176.82    183.22    -27.93     24.00
   18.9988    176.88    181.38    -26.03     24.00
   19.0090    174.65    179.54    -26.41     24.00
   19.0191    173.60    177.73    -25.66     24.00
   19.0293    168.96    175.93    -28.49     24.00
   19.0395    170.29    174.15    -25.39     24.00
   19.0496    169.20    172.42    -24.74     24.00
   19.0598    165.35    170.69    -26.86     24.00
   19.0700    167.06    169.00    -23.46     24.00
   19.0801    164.91    167.35    -23.96     24.00
   19.0903    164.46    165.72    -22.78     24.00
   19.1005    160.92    164.12    -24.73     24.00
   19.1106    162.68    162.58    -21.42     24.00
   19.1208    160.41    161.05    -22.17     24.00
   19.1310    159.59    159.57    -21.50     24.00
   19.1411    157.09    158.14    -22.57     24.00
   19.1513    157.15    156.73    -21.10     24.00
   19.1614    155.16    155.38    -21.74     24.00
   19.1716    155.10    154.05    -20.48     24.00
   19.1818    153.74    152.77    -20.55     24.00
   19.1919    154.73    151.54    -18.34     24.00
   19.2021    153.79    150.34    -18.08     24.00
   19.2123    152.37    149.19    -18.34     24.00
   19.2224    154.51    148.09    -15.10     24.00
   19.2326    150.63    147.02    -17.91     24.00
   19.2428    148.77    145.99    -18.74     24.00
   19.2529    148.43    145.01    -18.11     24.00
   19.2631    148.90    144.07    -16.69     24.00
   19.2733    146.99    143.17    -17.70     24.00
   19.2834    145.96    142.32    -17.88     24.00
   19.2936    145.80    141.50    -17.23     24.00
   19.3038    144.57    140.72    -17.68     24.00
   19.3139    144.30    139.99    -17.22     24.00
   19.3241    145.28    139.30    -15.54     24.00
   19.3342    142.83    138.64    -17.34     24.00
   19.3444    143.23    138.02    -16.32     24.00
   19.3546    142.71    137.44    -16.25     24.00
   19.3647    140.82    136.89    -17.60     24.00
   19.3749    141.70    136.38    -16.21     24.00
   19.3851    140.31    135.90    -17.12     24.00
   19.3952    141.57    135.46    -15.42     24.00
   19.4054    141.60    135.05    -14.98     24.00
   19.4156    139.43    134.67    -16.77     24.00
   19.4257    139.10    134.33    -16.75     24.00
   19.4359    139.19    134.01    -16.34     24.00
   19.4461    138.05    133.72    -17.19     24.00
   19.4562    137.27    133.46    -17.71     24.00
   19.4664    138.49    133.22    -16.25     24.00
   19.4765    137.93    133.01    -16.60     24.00
   19.4867    135.45    132.82    -18.90     24.00
   19.4969    137.87    132.66    -16.32     24.00
   19.5070    135.66    132.52    -18.39     24.00
   19.5172    136.47    132.41    -17.46     24.00
   19.5274    135.28    132.31    -18.55     24.00
   19.5375    133.18    132.23    -20.58     24.00
   19.5477    133.87    132.18    -19.83     24.00
   19.5579    134.48    132.14    -19.18     24.00
   19.5680    135.08    132.11    -18.56     24.00
   19.5782    134.73    132.11    -18.90     24.00
   19.5884    133.75    132.11    -19.89     24.00
   19.5985    132.74    132.14    -20.92     24.00
   19.6087    132.81    132.17    -20.89     24.00
   19.6188    134.72    132.22    -19.02     24.00
   19.6290    132.11    132.28    -21.69     24.00
   19.6392    133.88    132.35    -20.00     24.00
   19.6493    132.85    132.43    -21.11     24.00
   19.6595    133.48    132.52    -20.57     24.00
   19.6697    133.13    132.62    -21.02     24.00
   19.6798    133.67    132.73    -20.58     24.00
   19.6900    133.35    132.85    -21.02     24.00
   19.7002    133.10    132.97    -21.39     24.00
   19.7103    131.15    133.09    -23.47     24.00
   19.7205    133.32    133.23    -21.43     24.00
   19.7307    132.59    133.37    -22.30     24.00
   19.7408    133.14    133.51    -21.89     24.00
   19.7510    132.06    133.66    -23.12     24.00
   19.7612    131.13    133.81    -24.20     24.00
   19.7713    132.28    133.96    -23.20     24.00
   19.7815    132.77    134.11    -22.87     24.00
   19.7916    131.97    134.27    -23.82     24.00
   19.8018    131.23    134.43    -24.72     24.00
   19.8120    131.41    134.59    -24.70     24.00
   19.8221    131.74    134.75    -24.53     24.00
   19.8323    132.25    134.91    -24.18     24.00
   19.8425    132.40    135.07    -24.19     24.00
   19.8526    133.07    135.22    -23.68     24.00
   19.8628    132.43    135.38    -24.47     24.00
   19.8730    131.11    135.54    -25.95     24.00
   19.8831    130.52    135.69    -26.69     24.00
   19.8933    132.28    135.84    -25.09     24.00
   19.9035    132.24    135.99    -25.28     24.00
   19.9136    130.19    136.14    -27.47     24.00
   19.9238    133.05    136.29    -24.76     24.00
   19.9339    132.02    136.43    -25.93     24.00
   19.9441    130.50    136.56    -27.59     24.00
   19.9543    132.29    136.70    -25.93     24.00
   19.9644    133.26    136.83    -25.09     24.00
   19.9746    132.20    136.96    -26.28     24.00
   19.9848    134.38    137.08    -24.22     24.00
   19.9949    132.99    137.20    -25.73     24.00
   20.0051    132.86    137.31    -25.97     24.00
   20.0153    133.40    137.42    -25.54     24.00
   20.0254    134.35    137.52    -24.69     24.00
   20.0356    132.70    137.62    -26.44     24.00
   20.0458    132.33    137.71    -26.91     24.00
   20.0559    134.04    137.80    -25.28     24.00
   20.0661    133.23    137.88    -26.17     24.00
   20.0763    135.90    137.96    -23.58     24.00
   20.0864    135.24    138.03    -24.31     24.00
   20.0966    133.65    138.09    -25.97     24.00
   20.1067    133.27    138.15    -26.40     24.00
   20.1169    134.35    138.20    -25.38     24.00
   20.1271    133.44    138.25    -26.33     24.00
   20.1372    136.15    138.29    -23.66     24.00
   20.1474    134.34    138.32    -25.50     24.00
   20.1576    135.37    138.35    -24.50     24.00
   20.1677    137.04    138.37    -22.85     24.00
   20.1779    135.29    138.38    -24.61     24.00
   20.1881    134.32    138.39    -25.59     24.00
   20.1982    135.51    138.39    -24.40     24.00
   20.2084    135.38    138.38    -24.52     24.00
   20.2186    135.54    138.37    -24.35     24.00
   20.2287    136.29    138.35    -23.58     24.00
   20.2389    136.62    138.32    -23.22     24.00
   20.2490    136.61    138.29    -23.20     24.00
   20.2592    136.84    138.24    -22.93     24.00
   20.2694    137.20    138.20    -22.52     24.00
   20.2795    136.61    138.14    -23.06     24.00
   20.2897    137.30    138.08    -22.31     24.00
   20.2999    137.77    138.01    -21.77     24.00
   20.3100    135.60    137.94    -23.86     24.00
   20.3202    138.43    137.86    -20.95     24.00
   20.3304    137.94    137.77    -21.35     24.00
   20.3405    137.57    137.67    -21.63     24.00
   20.3507    139.55    137.57    -19.54     24.00
   20.3609    137.95    137.46    -21.04     24.00
   20.3710    138.11    137.35    -20.76     24.00
   20.3812    137.12    137.22    -21.63     24.00
   20.3914    140.06    137.10    -18.56     24.00
   20.4015    137.90    136.96    -20.59     24.00
   20.4117    139.63    136.82    -18.71     24.00
   20.4218    140.35    136.67    -17.85     24.00
   20.4320    140.07    136.52    -17.97     24.00
   20.4422    140.00    136.36    -17.88     24.00
   20.4523    139.21    136.20    -18.51     24.00
   20.4625    138.75    136.02    -18.80     24.00
   20.4727    137.57    135.85    -19.80     24.00
   20.4828    138.66    135.66    -18.53     24.00
   20.4930    138.98    135.47    -18.02     24.00
   20.5032    138.98    135.28    -17.82     24.00
   20.5133    139.73    135.08    -16.88     24.00
   20.5235    138.53    134.88    -17.87     24.00
   20.5337    138.89    134.66    -17.30     24.00
   20.5438    138.80    134.45    -17.18     24.00
   20.5540    136.76    134.23    -18.99     24.00
   20.5641    137.16    134.01    -18.37     24.00
   20.5743    140.04    133.78    -15.26     24.00
   20.5845    136.78    133.54    -18.29     24.00
   20.5946    139.46    133.31    -15.37     24.00
   20.6048    137.35    133.06    -17.24     24.00
   20.6150    137.64    132.82    -16.70     24.00
   20.6251    138.19    132.57    -15.90     24.00
   20.6353    136.06    132.31    -17.78     24.00
   20.6455    135.25    132.06    -18.33     24.00
   20.6556    136.24    131.80    -17.08     24.00
   20.6658    135.36    131.53    -17.70     24.00
   20.6760    135.13    131.27    -17.66     24.00
   20.6861    134.60    131.00    -17.92     24.00
   20.6963    133.80    130.73    -18.45     24.00
   20.7065    133.96    130.45    -18.01     24.00
   20.7166    134.49    130.17    -17.21     24.00
   20.7268    133.73    129.90    -17.69     24.00
   20.7369    131.49    129.62    -19.65     24.00
   20.7471    135.49    129.33    -15.37     24.00
   20.7573    132.30    129.05    -18.27     24.00
   20.7674    129.80    128.77    -20.49     24.00
   20.7776    131.84    128.48    -18.16     24.00
   20.7878    132.06    128.19    -17.65     24.00
   20.7979    130.07    127.90    -19.36     24.00
   20.8081    130.34    127.62    -18.80     24.00
   20.8183    131.43    127.33    -17.42     24.00
   20.8284    127.92    127.04    -20.64     24.00
   20.8386    127.66    126.75    -20.61     24.00
   20.8488    126.99    126.46    -21.00     24.00
   20.8589    127.93    126.18    -19.77     24.00
   20.8691    126.48    125.89    -20.93     24.00
   20.8792    127.94    125.61    -19.19     24.00
   20.8894    127.29    125.32    -19.56     24.00
   20.8996    126.12    125.04    -20.44     24.00
   20.9097    125.03    124.76    -21.26     24.00
   20.9199    124.62    124.48    -21.39     24.00
   20.9301    124.81    124.21    -20.92     24.00
   20.9402    124.54    123.94    -20.92     24.00
   20.9504    123.13    123.66    -22.06     24.00
   20.9606    125.54    123.40    -19.38     24.00
   20.9707    121.86    123.13    -22.80     24.00
   20.9809    121.27    122.87    -23.13     24.00
   20.9911    122.21    122.62    -21.93     24.00
   21.0012    123.35    122.36    -20.54     24.00
   21.0114    121.37    122.12    -22.27     24.00
   21.0216    120.62    121.87    -22.78     24.00
   21.0317    122.61    121.63    -20.55     24.00
   21.0419    121.58    121.40    -21.34     24.00
   21.0520    121.13    121.17    -21.57     24.00
   21.0622    120.80    120.95    -21.67     24.00
   21.0724    118.52    120.73    -23.73     24.00
   21.0825    119.61    120.52    -22.43     24.00
   21.0927    119.59    120.32    -22.25     24.00
   21.1029    118.62    120.12    -23.02     24.00
   21.1130    118.64    119.93    -22.81     24.00
   21.1232    119.15    119.74    -22.11     24.00
   21.1334    118.27    119.56    -22.82     24.00
   21.1435    116.54    119.39    -24.38     24.00
   21.1537    118.30    119.23    -22.46     24.00
   21.1639    116.60    119.08    -24.00     24.00
   21.1740    118.36    118.93    -22.10     24.00
   21.1842    118.49    118.79    -21.83     24.00
   21.1943    116.17    118.67    -24.02     24.00
   21.2045    117.06    118.55    -23.01     24.00
   21.2147    118.21    118.43    -21.75     24.00
   21.2248    115.95    118.33    -23.91     24.00
   21.2350    115.77    118.24    -24.00     24.00
   21.2452    116.12    118.16    -23.56     24.00
   21.2553    117.01    118.09    -22.60     24.00
   21.2655    115.74    118.03    -23.81     24.00
   21.2757    115.61    117.98    -23.89     24.00
   21.2858    116.49    117.93    -22.97     24.00
   21.2960    115.14    117.90    -24.29     24.00
   21.3062    116.14    117.89    -23.27     24.00
   21.3163    114.69    117.88    -24.71     24.00
   21.3265    118.04    117.88    -21.36     24.00
   21.3366    116.72    117.90    -22.70     24.00
   21.3468    115.63    117.92    -23.82     24.00
   21.3570    116.09    117.96    -23.39     24.00
   21.3671    116.40    118.01    -23.13     24.00
   21.3773    113.80    118.07    -25.80     24.00
   21.3875    115.91    118.15    -23.76     24.00
   21.3976    115.85    118.23    -23.91     24.00
   21.4078    116.42    118.33    -23.43     24.00
   21.4180    118.35    118.44    -21.62     24.00
   21.4281    117.98    118.56    -22.11     24.00
   21.4383    115.69    118.70    -24.53     24.00
   21.4485    116.65    118.85    -23.72     24.00
   21.4586    117.29    119.01    -23.24     24.00
   21.4688    114.51    119.18    -26.20     24.00
   21.4790    118.23    119.37    -22.66     24.00
   21.4891    118.43    119.57    -22.66     24.00
   21.4993    117.09    119.78    -24.21     24.00
   21.5094    117.18    120.00    -24.35     24.00
   21.5196    117.05    120.24    -24.71     24.00
   21.5298    117.32    120.49    -24.69     24.00
   21.5399    117.65    120.75    -24.62     24.00
   21.5501    118.16    121.02    -24.39     24.00
   21.5603    118.43    121.31    -24.41     24.00
   21.5704    119.09    121.61    -24.04     24.00
   21.5806    120.92    121.92    -22.52     24.00
   21.5908    119.47    122.24    -24.30     24.00
   21.6009    118.99    122.58    -25.11     24.00
   21.6111    119.99    122.92    -24.46     24.00
   21.6213    120.30    123.28    -24.51     24.00
   21.6314    120.77    123.65    -24.40     24.00
   21.6416    122.54    124.03    -23.01     24.00
   21.6517    121.32    124.42    -24.62     24.00
   21.6619    124.08    124.82    -22.26     24.00
   21.6721    122.99    125.23    -23.77     24.00
   21.6822    121.91    125.65    -25.27     24.00
   21.6924    124.24    126.09    -23.37     24.00
   21.7026    125.27    126.53    -22.78     24.00
   21.7127    124.10    126.97    -24.40     24.00
   21.7229    126.90    127.44    -22.06     24.00
   21.7331    127.36    127.90    -22.07     24.00
   21.7432    127.26    128.38    -22.64     24.00
   21.7534    128.10    128.86    -22.29     24.00
   21.7636    128.77    129.35    -22.11     24.00
   21.7737    128.01    129.85    -23.36     24.00
   21.7839    130.81    130.35    -21.07     24.00
   21.7941    132.62    130.86    -19.77     24.00
   21.8042    129.85    131.38    -23.05     24.00
   21.8144    133.84    131.90    -19.58     24.00
   21.8245    133.70    132.42    -20.25     24.00
   21.8347    132.48    132.95    -22.00     24.00
   21.8449    135.06    133.49    -19.95     24.00
   21.8550    134.38    134.02    -21.17     24.00
   21.8652    134.71    134.56    -21.38     24.00
   21.8754    137.60    135.11    -19.03     24.00
   21.8855    139.45    135.64    -17.72     24.00
   21.8957    135.67    136.19    -22.04     24.00
   21.9059    140.41    136.74    -17.85     24.00
   21.9160    140.34    137.28    -18.46     24.00
   21.9262    139.82    137.82    -19.53     24.00
   21.9364    140.73    138.37    -19.16     24.00
   21.9465    141.87    138.90    -18.56     24.00
   21.9567    141.12    139.44    -19.85     24.00
   21.9668    142.39    139.97    -19.11     24.00
   21.9770    143.31    140.50    -18.72     24.00
   21.9872    142.59    141.03    -19.97     24.00
   21.9973    145.03    141.55    -18.04     24.00
   22.0075    144.21    142.07    -19.38     24.00
   22.0177    144.15    142.58    -19.95     24.00
   22.0278    144.63    143.08    -19.97     24.00
   22.0380    145.37    143.58    -19.73     24.00
   22.0482    145.32    144.06    -20.27     24.00
   22.0583    147.49    144.54    -18.57     24.00
   22.0685    148.85    145.01    -17.68     24.00
   22.0787    147.08    145.47    -19.91     24.00
   22.0888    147.87    145.91    -19.57     24.00
   22.0990    150.45    146.35    -17.43     24.00
   22.1092    146.52    146.78    -21.78     24.00
   22.1193    149.38    147.19    -19.33     24.00
   22.1295    151.15    147.59    -17.96     24.00
   22.1396    147.91    147.97    -21.59     24.00
   22.1498    151.57    148.34    -18.30     24.00
   22.1600    151.17    148.70    -19.06     24.00
   22.1701    151.34    149.04    -19.22     24.00
   22.1803    152.12    149.37    -18.77     24.00
   22.1905    151.27    149.68    -19.93     24.00
   22.2006    151.62    149.97    -19.87     24.00
   22.2108    152.14    150.24    -19.62     24.00
   22.2210    154.55    150.50    -17.47     24.00
   22.2311    151.01    150.73    -21.25     24.00
   22.2413    152.84    150.95    -19.64     24.00
   22.2515    154.84    151.15    -17.84     24.00
   22.2616    153.12    151.33    -19.74     24.00
   22.2718    153.98    151.49    -19.04     24.00
   22.2819    154.10    151.63    -19.05     24.00
   22.2921    153.01    151.75    -20.26     24.00
   22.3023    154.15    151.84    -19.22     24.00
   22.3124    155.48    151.92    -17.96     24.00
   22.3226    153.31    151.97    -20.19     24.00
   22.3328    155.47    152.01    -18.06     24.00
   22.3429    154.13    152.02    -19.41     24.00
   22.3531    153.11    152.00    -20.42     24.00
   22.3633    153.49    151.97    -20.00     24.00
   22.3734    154.95    151.91    -18.48     24.00
   22.3836    153.40    151.83    -19.95     24.00
   22.3938    151.55    151.73    -21.70     24.00
   22.4039    152.88    151.60    -20.24     24.00
   22.4141    152.52    151.45    -20.45     24.00
   22.4243    151.88    151.28    -20.92     24.00
   22.4344    152.29    151.08    -20.32     24.00
   22.4446    152.88    150.87    -19.51     24.00
   22.4547    152.12    150.63    -20.03     24.00
   22.4649    151.45    150.37    -20.44     24.00
   22.4751    146.84    150.08    -24.76     24.00
   22.4852    148.42    149.78    -22.88     24.00
   22.4954    148.38    149.45    -22.59     24.00
   22.5056    148.18    149.09    -22.44     24.00
   22.5157    149.54    148.73    -20.71     24.00
   22.5259    146.76    148.33    -23.10     24.00
   22.5361    146.91    147.92    -22.53     24.00
   22.5462    146.32    147.49    -22.69     24.00
   22.5564    146.09    147.03    -22.47     24.00
   22.5666    144.42    146.56    -23.66     24.00
   22.5767    146.73    146.07    -20.86     24.00
   22.5869    144.43    145.55    -22.65     24.00
   22.5970    143.90    145.03    -22.65     24.00
   22.6072    142.70    144.48    -23.30     24.00
   22.6174    144.02    143.91    -21.42     24.00
   22.6275    141.76    143.33    -23.10     24.00
   22.6377    141.67    142.73    -22.59     24.00
   22.6479    140.05    142.12    -23.59     24.00
   22.6580    137.62    141.49    -25.39     24.00
   22.6682    139.02    140.84    -23.35     24.00
   22.6784    137.69    140.18    -24.02     24.00
   22.6885    136.50    139.51    -24.54     24.00
   22.6987    137.24    138.82    -23.11     24.00
   22.7089    136.46    138.12    -23.19     24.00
   22.7190    134.13    137.42    -24.81     24.00
   22.7292    134.68    136.69    -23.54     24.00
   22.7394    132.23    135.96    -25.25     24.00
   22.7495    131.53    135.22    -25.21     24.00
   22.7597    132.90    134.46    -23.09     24.00
   22.7698    130.42    133.71    -24.81     24.00
   22.7800    129.63    132.93    -24.83     24.00
   22.7902    129.06    132.15    -24.61     24.00
   22.8003    128.43    131.37    -24.46     24.00
   22.8105    125.51    130.57    -26.59     24.00
   22.8207    127.18    129.77    -24.12     24.00
   22.8308    124.49    128.97    -26.01     24.00
   22.8410    124.40    128.16    -25.28     24.00
   22.8512    123.00    127.34    -25.87     24.00
   22.8613    123.63    126.53    -24.42     24.00
   22.8715    121.88    125.70    -25.35     24.00
   22.8817    123.30    124.88    -23.10     24.00
   22.8918    122.87    124.06    -22.71     24.00
   22.9020    119.91    123.22    -24.84     24.00
   22.9121    121.46    122.40    -22.46     24.00
   22.9223    119.88    121.57    -23.21     24.00
   22.9325    118.51    120.73    -23.75     24.00
   22.9426    117.15    119.91    -24.28     24.00
   22.9528    117.05    119.08    -23.55     24.00
   22.9630    115.40    118.25    -24.37     24.00
   22.9731    117.09    117.43    -21.86     24.00
   22.9833    115.97    116.60    -22.15     24.00
   22.9935    113.97    115.77    -23.33     24.00
   23.0036    113.68    114.96    -22.81     24.00
   23.0138    112.96    114.14    -22.71     24.00
   23.0240    109.99    113.33    -24.87     24.00
   23.0341    111.12    112.53    -22.93     24.00
   23.0443    111.87    111.73    -21.38     24.00
   23.0545    108.41    110.93    -24.04     24.00
   23.0646    110.57    110.14    -21.10     24.00
   23.0748    109.19    109.35    -21.69     24.00
   23.0849    108.20    108.58    -21.90     24.00
   23.0951    108.02    107.81    -21.31     24.00
   23.1053    106.34    107.04    -22.22     24.00
   23.1154    105.48    106.28    -22.33     24.00
   23.1256    106.57    105.53    -20.48     24.00
   23.1358    105.05    104.78    -21.26     24.00
   23.1459    103.29    104.05    -22.29     24.00
   23.1561    105.32    103.32    -19.53     24.00
   23.1663    103.60    102.60    -20.53     24.00
   23.1764    102.49    101.90    -20.93     24.00
   23.1866    102.52    101.19    -20.20     24.00
   23.1968    101.52    100.50    -20.50     24.00
   23.2069    101.98     99.82    -19.36     24.00
   23.2171    100.99     99.14    -19.67     24.00
   23.2272    100.09     98.48    -19.91     24.00
   23.2374     98.17     97.82    -21.17     24.00
   23.2476     97.95     97.17    -20.74     24.00
   23.2577     98.48     96.54    -19.58     24.00
   23.2679     97.34     95.91    -20.09     24.00
   23.2781     97.43     95.29    -19.38     24.00
   23.2882     95.66     94.68    -20.54     24.00
   23.2984     95.48     94.08    -20.12     24.00
   23.3086     95.46     93.49    -19.55     24.00
   23.3187     94.82     92.92    -19.62     24.00
   23.3289     96.45     92.35    -17.42     24.00
   23.3391     94.92     91.78    -18.39     24.00
   23.3492     94.30     91.24    -18.46     24.00
   23.3594     93.77     90.70    -18.45     24.00
   23.3695     92.82     90.17    -18.88     24.00
   23.3797     92.17     89.65    -19.01     24.00
   23.3899     91.46     89.14    -19.21     24.00
   23.4000     90.74     88.65    -19.43     24.00
   23.4102     90.45     88.15    -19.23     24.00
   23.4204     89.81     87.67    -19.39     24.00
   23.4305     89.24     87.20    -19.49     24.00
   23.4407     89.95     86.74    -18.32     24.00
   23.4509     88.59     86.29    -19.22     24.00
   23.4610     88.59     85.85    -18.78     24.00
   23.4712     87.93     85.41    -19.01     24.00
   23.4814     87.93     84.99    -18.58     24.00
   23.4915     86.99     84.58    -19.11     24.00
   23.5017     88.13     84.17    -17.56     24.00
   23.5119     86.16     83.77    -19.13     24.00
   23.5220     85.77     83.38    -19.14     24.00
   23.5322     86.32     83.00    -18.21     24.00
   23.5423     84.73     82.63    -19.43     24.00
   23.5525     85.20     82.27    -18.59     24.00
   23.5627     84.72     81.91    -18.71     24.00
   23.5728     84.71     81.56    -18.38     24.00
   23.5830     84.23     81.22    -18.52     24.00
   23.5932     83.87     80.89    -18.54     24.00
   23.6033     81.51     80.56    -20.58     24.00
   23.6135     83.41     80.25    -18.36     24.00
   23.6237     83.61     79.93    -17.85     24.00
   23.6338     82.74     79.63    -18.42     24.00
   23.6440     80.38     79.33    -20.48     24.00
   23.6542     80.63     79.04    -19.94     24.00
   23.6643     80.79     78.76    -19.49     24.00
   23.6745     81.96     78.48    -18.05     24.00
   23.6846     81.48     78.21    -18.26     24.00
   23.6948     79.16     77.95    -20.31     24.00
   23.7050     79.94     77.69    -19.27     24.00
   23.7151     78.71     77.44    -20.25     24.00
   23.7253     79.06     77.19    -19.65     24.00
   23.7355     79.98     76.94    -18.49     24.00
   23.7456     78.35     76.71    -19.88     24.00
   23.7558     78.00     76.48    -20.00     24.00
   23.7660     78.48     76.25    -19.29     24.00
   23.7761     78.37     76.03    -19.18     24.00
   23.7863     77.49     75.81    -19.85     24.00
   23.7965     76.44     75.60    -20.68     24.00
   23.8066     77.59     75.39    -19.33     24.00
   23.8168     76.94     75.19    -19.77     24.00
   23.8270     75.35     74.99    -21.16     24.00
   23.8371     77.71     74.79    -18.61     24.00
   23.8473     74.69     74.60    -21.44     24.00
   23.8574     75.60     74.42    -20.34     24.00
   23.8676     74.41     74.23    -21.35     24.00
   23.8778     74.09     74.05    -21.48     24.00
   23.8879     76.05     73.87    -19.35     24.00
   23.8981     74.18     73.70    -21.04     24.00
   23.9083     73.37     73.53    -21.68     24.00
   23.9184     74.34     73.36    -20.55     24.00
   23.9286     73.23     73.20    -21.49     24.00
   23.9388     74.23     73.04    -20.33     24.00
   23.9489     72.62     72.88    -21.78     24.00
   23.9591     72.15     72.72    -22.10     24.00
   23.9693     73.53     72.57    -20.56     24.00
   23.9794     72.88     72.42    -21.06     24.00
   23.9896     73.36     72.27    -20.43     24.00
   23.9997     72.46     72.12    -21.19     24.00
   24.0099     71.87     71.98    -21.63     24.00
   24.0201     72.28     71.84    -21.08     24.00
   24.0302     71.65     71.70    -21.57     24.00
   24.0404     70.70     71.56    -22.38     24.00
   24.0506     70.74     71.42    -22.21     24.00
   24.0607     72.15     71.29    -20.66     24.00
   24.0709     72.67     71.16    -20.01     24.00
   24.0811     70.43     71.03    -22.12     24.00
   24.0912     70.54     70.90    -21.88     24.00
   24.1014     70.26     70.77    -22.03     24.00
   24.1116     70.04     70.64    -22.13     24.00
   24.1217     69.16     70.52    -22.88     24.00
   24.1319     70.11     70.39    -21.81     24.00
   24.1421     70.78     70.27    -21.01     24.00
   24.1522     70.03     70.15    -21.64     24.00
   24.1624     69.11     70.03    -22.44     24.00
   24.1725     67.60     69.91    -23.84     24.00
   24.1827     68.25     69.79    -23.07     24.00
   24.1929     67.74     69.68    -23.46     24.00
   24.2030     69.27     69.56    -21.81     24.00
   24.2132     68.40     69.44    -22.57     24.00
   24.2234     68.68     69.33    -22.17     24.00
   24.2335     67.02     69.22    -23.72     24.00
   24.2437     67.74     69.10    -22.89     24.00
   24.2539     67.03     68.99    -23.49     24.00
   24.2640     67.73     68.88    -22.68     24.00
   24.2742     67.04     68.77    -23.26     24.00
   24.2844     67.12     68.66    -23.07     24.00
   24.2945     65.77     68.55    -24.31     24.00
   24.3047     66.15     68.44    -23.82     24.00
   24.3148     67.26     68.34    -22.60     24.00
   24.3250     65.91     68.23    -23.84     24.00
   24.3352     65.62     68.12    -24.03     24.00
   24.3453     67.48     68.02    -22.06     24.00
   24.3555     65.71     67.91    -23.72     24.00
   24.3657     65.18     67.80    -24.15     24.00
   24.3758     66.12     67.70    -23.10     24.00
   24.3860     65.16     67.59    -23.96     24.00
   24.3962     65.50     67.49    -23.51     24.00
   24.4063     64.46     67.39    -24.45     24.00
   24.4165     65.49     67.28    -23.32     24.00
   24.4267     63.85     67.18    -24.85     24.00
   24.4368     65.87     67.08    -22.73     24.00
   24.4470     64.27     66.97    -24.23     24.00
   24.4572     63.70     66.87    -24.70     24.00
   24.4673     65.12     66.77    -23.17     24.00
   24.4775     64.18     66.67    -24.01     24.00
   24.4876     64.03     66.57    -24.06     24.00
   24.4978     63.96     66.47    -24.03     24.00
   24.5080     63.84     66.36    -24.05     24.00
   24.5181     64.37     66.26    -23.42     24.00
   24.5283     63.34     66.16    -24.35     24.00
   24.5385     63.57     66.06    -24.02     24.00
   24.5486     64.50     65.96    -22.99     24.00
   24.5588     63.49     65.86    -23.90     24.00
   24.5690     63.57     65.76    -23.72     24.00
   24.5791     64.09     65.66    -23.10     24.00
   24.5893     63.20     65.56    -23.89     24.00
   24.5995     63.74     65.47    -23.25     24.00
   24.6096     63.66     65.37    -23.23     24.00
   24.6198     62.24     65.27    -24.55     24.00
   24.6299     62.25     65.17    -24.44     24.00
   24.6401     63.25     65.07    -23.34     24.00
   24.6503     62.62     64.97    -23.88     24.00
   24.6604     63.61     64.87    -22.79     24.00
   24.6706     61.90     64.78    -24.40     24.00
   24.6808     62.29     64.68    -23.91     24.00
   24.6909     62.20     64.58    -23.90     24.00
   24.7011     61.99     64.48    -24.02     24.00
   24.7113     62.62     64.38    -23.29     24.00
   24.7214     61.28     64.29    -24.53     24.00
   24.7316     60.92     64.19    -24.79     24.00
   24.7418     61.54     64.09    -24.08     24.00
   24.7519     61.84     63.99    -23.68     24.00
   24.7621     62.07     63.90    -23.35     24.00
   24.7723     60.82     63.80    -24.50     24.00
   24.7824     61.52     63.70    -23.71     24.00
   24.7926     61.86     63.61    -23.27     24.00
   24.8027     60.63     63.51    -24.40     24.00
   24.8129     61.34     63.41    -23.60     24.00
   24.8231     60.45     63.32    -24.39     24.00
   24.8332     61.27     63.22    -23.47     24.00
   24.8434     60.40     63.12    -24.25     24.00
   24.8536     60.83     63.03    -23.72     24.00
   24.8637     60.18     62.93    -24.28     24.00
   24.8739     60.07     62.84    -24.29     24.00
   24.8841     59.91     62.74    -24.35     24.00
   24.8942     60.27     62.64    -23.90     24.00
   24.9044     59.38     62.55    -24.69     24.00
   24.9146     60.91     62.45    -23.07     24.00
   24.9247     59.92     62.36    -23.96     24.00
   24.9349     61.21     62.26    -22.58     24.00
   24.9450     60.30     62.17    -23.39     24.00
   24.9552     60.20     62.07    -23.39     24.00
   24.9654     60.43     61.98    -23.07     24.00
   24.9755     60.38     61.88    -23.02     24.00
   24.9857     59.01     61.79    -24.30     24.00
   24.9959     58.81     61.69    -24.40     24.00
   25.0060     59.10     61.60    -24.02     24.00
   25.0162     59.74     61.50    -23.28     24.00
   25.0264     58.82     61.41    -24.11     24.00
   25.0365     60.15     61.31    -22.69     24.00
   25.0467     58.89     61.22    -23.85     24.00
   25.0569     58.25     61.12    -24.40     24.00
   25.0670     58.06     61.03    -24.49     24.00
   25.0772     59.21     60.93    -23.25     24.00
   25.0874     59.29     60.84    -23.07     24.00
   25.0975     59.03     60.75    -23.24     24.00
   25.1077     57.72     60.65    -24.46     24.00
   25.1178     59.15     60.56    -22.93     24.00
   25.1280     58.46     60.46    -23.53     24.00
   25.1382     58.28     60.37    -23.61     24.00
   25.1483     59.18     60.28    -22.62     24.00
   25.1585     58.61     60.18    -23.10     24.00
   25.1687     58.33     60.09    -23.28     24.00
   25.1788     58.46     60.00    -23.06     24.00
   25.1890     58.18     59.90    -23.25     24.00
   25.1992     58.66     59.81    -22.68     24.00
   25.2093     58.98     59.72    -22.26     24.00
   25.2195     57.51     59.63    -23.64     24.00
   25.2297     57.92     59.53    -23.14     24.00
   25.2398     57.57     59.44    -23.39     24.00
   25.2500     57.30     59.35    -23.57     24.00
   25.2601     57.06     59.26    -23.72     24.00
   25.2703     58.30     59.16    -22.39     24.00
   25.2805     56.15     59.07    -24.44     24.00
   25.2906     56.75     58.98    -23.75     24.00
   25.3008     57.71     58.89    -22.70     24.00
   25.3110     55.90     58.79    -24.42     24.00
   25.3211     58.59     58.70    -21.64     24.00
   25.3313     57.59     58.61    -22.55     24.00
   25.3415     56.35     58.52    -23.69     24.00
   25.3516     57.95     58.43    -22.00     24.00
   25.3618     57.28     58.34    -22.58     24.00
   25.3720     57.10     58.25    -22.67     24.00
   25.3821     56.24     58.15    -23.44     24.00
   25.3923     56.54     58.06    -23.05     24.00
   25.4024     56.73     57.97    -22.77     24.00
   25.4126     58.01     57.88    -21.40     24.00
   25.4228     57.38     57.79    -21.93     24.00
   25.4329     56.24     57.70    -22.98     24.00
   25.4431     56.44     57.61    -22.69     24.00
   25.4533     57.17     57.52    -21.87     24.00
   25.4634     57.02     57.43    -21.93     24.00
   25.4736     55.76     57.34    -23.10     24.00
   25.4838     55.28     57.25    -23.49     24.00
   25.4939     56.35     57.16    -22.33     24.00
   25.5041     56.68     57.07    -21.91     24.00
   25.5143     55.79     56.98    -22.71     24.00
   25.5244     55.69     56.89    -22.72     24.00
   25.5346     56.09     56.80    -22.23     24.00
   25.5448     56.24     56.71    -21.99     24.00
   25.5549     57.65     56.62    -20.50     24.00
   25.5651     55.39     56.53    -22.67     24.00
   25.5752     55.81     56.44    -22.16     24.00
   25.5854     55.97     56.36    -21.91     24.00
   25.5956     56.27     56.27    -21.52     24.00
   25.6057     54.79     56.18    -22.91     24.00
   25.6159     56.63     56.09    -20.98     24.00
   25.6261     55.37     56.00    -22.15     24.00
   25.6362     54.57     55.91    -22.87     24.00
   25.6464     55.67     55.82    -21.68     24.00
   25.6566     55.72     55.74    -21.54     24.00
   25.6667     56.02     55.65    -21.15     24.00
   25.6769     55.43     55.56    -21.66     24.00
   25.6871     56.47     55.47    -20.53     24.00
   25.6972     54.66     55.39    -22.25     24.00
   25.7074     55.21     55.30    -21.61     24.00
   25.7175     54.47     55.21    -22.27     24.00
   25.7277     55.59     55.12    -21.06     24.00
   25.7379     54.78     55.04    -21.78     24.00
   25.7480     55.57     54.95    -20.91     24.00
   25.7582     55.26     54.86    -21.13     24.00
   25.7684     54.94     54.78    -21.36     24.00
   25.7785     55.59     54.69    -20.63     24.00
   25.7887     55.27     54.61    -20.86     24.00
   25.7989     54.73     54.52    -21.31     24.00
   25.8090     53.33     54.43    -22.63     24.00
   25.8192     54.91     54.35    -20.96     24.00
   25.8294     53.96     54.26    -21.83     24.00
   25.8395     53.16     54.18    -22.54     24.00
   25.8497     54.02     54.09    -21.60     24.00
   25.8599     54.02     54.01    -21.51     24.00
   25.8700     54.40     53.92    -21.05     24.00
   25.8802     53.16     53.84    -22.20     24.00
   25.8903     53.87     53.75    -21.41     24.00
   25.9005     53.31     53.67    -21.88     24.00
   25.9107     54.52     53.58    -20.59     24.00
   25.9208     54.18     53.50    -20.84     24.00
   25.9310     53.62     53.42    -21.32     24.00
   25.9412     53.46     53.33    -21.40     24.00
   25.9513     52.09     53.25    -22.68     24.00
   25.9615     52.80     53.17    -21.89     24.00
   25.9717     53.66     53.08    -20.95     24.00
   25.9818     52.99     53.00    -21.53     24.00
   25.9920     54.09     52.92    -20.35     24.00
   26.0022     53.19     52.83    -21.17     24.00
   26.0123     52.22     52.75    -22.06     24.00
   26.0225     53.10     52.67    -21.09     24.00
   26.0326     54.11     52.59    -20.00     24.00
   26.0428     52.87     52.50    -21.16     24.00
   26.0530     53.31     52.42    -20.64     24.00
   26.0631     53.14     52.34    -20.73     24.00
   26.0733     52.87     52.26    -20.91     24.00
   26.0835     52.66     52.18    -21.04     24.00
   26.0936     52.96     52.10    -20.66     24.00
   26.1038     53.34     52.02    -20.20     24.00
   26.1140     53.27     51.94    -20.19     24.00
   26.1241     51.90     51.86    -21.48     24.00
   26.1343     53.10     51.78    -20.20     24.00
   26.1445     53.66     51.70    -19.56     24.00
   26.1546     52.10     51.62    -21.04     24.00
   26.1648     52.24     51.54    -20.82     24.00
   26.1750     53.45     51.46    -19.54     24.00
   26.1851     52.14     51.38    -20.77     24.00
   26.1953     53.04     51.30    -19.79     24.00
   26.2054     51.88     51.23    -20.87     24.00
   26.2156     52.79     51.15    -19.88     24.00
   26.2258     52.25     51.07    -20.35     24.00
   26.2359     51.01     51.00    -21.51     24.00
   26.2461     51.74     50.92    -20.70     24.00
   26.2563     51.95     50.84    -20.42     24.00
   26.2664     51.77     50.77    -20.52     24.00
   26.2766     52.43     50.69    -19.78     24.00
   26.2868     52.13     50.62    -20.01     24.00
   26.2969     51.57     50.54    -20.49     24.00
   26.3071     51.29     50.47    -20.70     24.00
   26.3173     50.37     50.39    -21.55     24.00
   26.3274     52.15     50.32    -19.69     24.00
   26.3376     52.01     50.24    -19.76     24.00
   26.3477     50.91     50.17    -20.79     24.00
   26.3579     52.04     50.10    -19.58     24.00
   26.3681     51.48     50.03    -20.07     24.00
   26.3782     51.01     49.96    -20.47     24.00
   26.3884     51.63     49.88    -19.78     24.00
   26.3986     52.67     49.81    -18.67     24.00
   26.4087     50.20     49.74    -21.07     24.00
   26.4189     50.93     49.67    -20.27     24.00
   26.4291     52.01     49.61    -19.12     24.00
   26.4392     51.24     49.54    -19.82     24.00
   26.4494     51.01     49.47    -19.98     24.00
   26.4596     50.77     49.40    -20.16     24.00
   26.4697     51.17     49.34    -19.69     24.00
   26.4799     50.13     49.27    -20.66     24.00
   26.4901     50.54     49.20    -20.19     24.00
   26.5002     51.58     49.14    -19.08     24.00
   26.5104     50.77     49.07    -19.83     24.00
   26.5205     51.00     49.01    -19.54     24.00
   26.5307     50.98     48.95    -19.49     24.00
   26.5409     50.43     48.89    -19.98     24.00
   26.5510     50.43     48.83    -19.92     24.00
   26.5612     50.87     48.77    -19.42     24.00
   26.5714     50.40     48.71    -19.83     24.00
   26.5815     51.37     48.65    -18.80     24.00
   26.5917     51.57     48.59    -18.54     24.00
   26.6019     50.38     48.53    -19.68     24.00
   26.6120     50.70     48.48    -19.30     24.00
   26.6222     50.26     48.42    -19.69     24.00
   26.6324     51.18     48.37    -18.71     24.00
   26.6425     50.50     48.31    -19.34     24.00
   26.6527     50.05     48.26    -19.74     24.00
   26.6628     49.70     48.21    -20.04     24.00
   26.6730     51.40     48.16    -18.29     24.00
   26.6832     49.55     48.11    -20.09     24.00
   26.6933     50.44     48.07    -19.15     24.00
   26.7035     51.67     48.02    -17.87     24.00
   26.7137     49.48     47.97    -20.02     24.00
   26.7238     50.71     47.93    -18.74     24.00
   26.7340     50.67     47.89    -18.74     24.00
   26.7442     49.39     47.85    -19.98     24.00
   26.7543     50.46     47.81    -18.87     24.00
   26.7645     50.27     47.77    -19.02     24.00
   26.7747     49.63     47.73    -19.62     24.00
   26.7848     49.86     47.69    -19.36     24.00
   26.7950     49.49     47.66    -19.69     24.00
   26.8052     50.10     47.63    -19.05     24.00
   26.8153     49.77     47.60    -19.35     24.00
   26.8255     49.44     47.57    -19.65     24.00
   26.8356     51.26     47.54    -17.80     24.00
   26.8458     48.94     47.51    -20.10     24.00
   26.8560     48.99     47.49    -20.02     24.00
   26.8661     49.38     47.47    -19.61     24.00
   26.8763     50.12     47.45    -18.85     24.00
   26.8865     50.09     47.43    -18.86     24.00
   26.8966     49.91     47.41    -19.03     24.00
   26.9068     50.01     47.40    -18.91     24.00
   26.9170     49.71     47.38    -19.20     24.00
   26.9271     50.08     47.37    -18.82     24.00
   26.9373     49.92     47.36    -18.97     24.00
   26.9475     49.37     47.36    -19.51     24.00
   26.9576     49.77     47.35    -19.11     24.00
   26.9678     50.40     47.35    -18.48     24.00
   26.9779     49.47     47.35    -19.41     24.00
   26.9881     48.74     47.35    -20.14     24.00
   26.9983     50.06     47.36    -18.82     24.00
   27.0084     49.59     47.37    -19.30     24.00
   27.0186     49.29     47.38    -19.61     24.00
   27.0288     49.87     47.39    -19.04     24.00
   27.0389     50.18     47.40    -18.75     24.00
   27.0491     49.45     47.42    -19.50     24.00
   27.0593     50.32     47.44    -18.65     24.00
   27.0694     49.62     47.46    -19.37     24.00
   27.0796     49.48     47.49    -19.53     24.00
   27.0898     48.68     47.52    -20.36     24.00
   27.0999     49.65     47.55    -19.42     24.00
   27.1101     49.97     47.58    -19.14     24.00
   27.1202     49.05     47.62    -20.09     24.00
   27.1304     48.94     47.66    -20.24     24.00
   27.1406     49.60     47.70    -19.62     24.00
   27.1507     49.91     47.75    -19.36     24.00
   27.1609     49.82     47.79    -19.50     24.00
   27.1711     48.60     47.85    -20.77     24.00
   27.1812     49.62     47.90    -19.80     24.00
   27.1914     49.91     47.96    -19.57     24.00
   27.2016     49.23     48.02    -20.31     24.00
   27.2117     49.66     48.08    -19.95     24.00
   27.2219     49.87     48.15    -19.80     24.00
   27.2321     48.67     48.22    -21.07     24.00
   27.2422     49.98     48.29    -19.84     24.00
   27.2524     49.98     48.37    -19.91     24.00
   27.2626     50.46     48.45    -19.51     24.00
   27.2727     48.86     48.53    -21.19     24.00
   27.2829     48.97     48.62    -21.17     24.00
   27.2930     49.60     48.71    -20.63     24.00
   27.3032     49.69     48.80    -20.63     24.00
   27.3134     49.48     48.90    -20.94     24.00
   27.3235     49.43     48.99    -21.09     24.00
   27.3337     49.90     49.10    -20.72     24.00
   27.3439     50.06     49.20    -20.67     24.00
   27.3540     49.86     49.31    -20.98     24.00
   27.3642     49.32     49.43    -21.63     24.00
   27.3744     50.32     49.54    -20.75     24.00
   27.3845     50.45     49.66    -20.73     24.00
   27.3947     50.47     49.78    -20.84     24.00
   27.4049     50.73     49.91    -20.70     24.00
   27.4150     50.07     50.04    -21.49     24.00
   27.4252     49.95     50.17    -21.74     24.00
   27.4353     49.52     50.30    -22.31     24.00
   27.4455     50.68     50.44    -21.29     24.00
   27.4557     50.87     50.58    -21.24     24.00
   27.4658     50.01     50.73    -22.24     24.00
   27.4760     50.88     50.87    -21.52     24.00
   27.4862     51.20     51.02    -21.35     24.00
   27.4963     49.78     51.18    -22.92     24.00
   27.5065     50.83     51.33    -22.03     24.00
   27.5167     51.45     51.49    -21.57     24.00
   27.5268     50.82     51.65    -22.36     24.00
   27.5370     50.24     51.82    -23.10     24.00
   27.5472     51.67     51.99    -21.84     24.00
   27.5573     50.84     52.15    -22.84     24.00
   27.5675     50.70     52.33    -23.15     24.00
   27.5777     51.20     52.50    -22.82     24.00
   27.5878     51.50     52.68    -22.70     24.00
   27.5980     51.26     52.85    -23.12     24.00
   27.6081     51.54     53.03    -23.02     24.00
   27.6183     51.04     53.22    -23.70     24.00
   27.6285     51.95     53.40    -22.98     24.00
   27.6386     51.79     53.59    -23.32     24.00
   27.6488     50.71     53.78    -24.59     24.00
   27.6590     52.90     53.97    -22.59     24.00
   27.6691     51.93     54.16    -23.75     24.00
   27.6793     52.28     54.35    -23.60     24.00
   27.6895     52.26     54.55    -23.81     24.00
   27.6996     53.70     54.74    -22.57     24.00
   27.7098     51.88     54.94    -24.58     24.00
   27.7200     53.15     55.14    -23.51     24.00
   27.7301     53.16     55.33    -23.70     24.00
   27.7403     52.48     55.53    -24.58     24.00
   27.7504     52.54     55.73    -24.72     24.00
   27.7606     52.57     55.93    -24.89     24.00
   27.7708     52.37     56.13    -25.29     24.00
   27.7809     52.88     56.33    -24.98     24.00
   27.7911     54.16     56.54    -23.90     24.00
   27.8013     54.20     56.74    -24.06     24.00
   27.8114     54.74     56.94    -23.72     24.00
   27.8216     54.27     57.14    -24.39     24.00
   27.8318     54.93     57.34    -23.93     24.00
   27.8419     54.76     57.53    -24.30     24.00
   27.8521     54.69     57.73    -24.57     24.00
   27.8623     53.62     57.93    -25.83     24.00
   27.8724     54.93     58.13    -24.72     24.00
   27.8826     55.23     58.32    -24.61     24.00
   27.8928     56.47     58.51    -23.57     24.00
   27.9029     56.28     58.70    -23.95     24.00
   27.9131     57.22     58.90    -23.20     24.00
   27.9232     56.34     59.08    -24.27     24.00
   27.9334     56.71     59.27    -24.08     24.00
   27.9436     57.00     59.45    -23.98     24.00
   27.9537     57.39     59.63    -23.77     24.00
   27.9639     58.07     59.81    -23.27     24.00
   27.9741     57.77     59.99    -23.74     24.00
   27.9842     58.07     60.16    -23.61     24.00
   27.9944     58.55     60.33    -23.31     24.00
   28.0046     58.54     60.50    -23.48     24.00
   28.0147     59.21     60.66    -22.98     24.00
   28.0249     58.41     60.82    -23.94     24.00
   28.0351     59.10     60.98    -23.40     24.00
   28.0452     58.76     61.13    -23.90     24.00
   28.0554     60.38     61.28    -22.43     24.00
   28.0655     59.77     61.43    -23.18     24.00
   28.0757     59.70     61.57    -23.39     24.00
   28.0859     61.04     61.70    -22.19     24.00
   28.0960     58.92     61.84    -24.44     24.00
   28.1062     61.07     61.96    -22.42     24.00
   28.1164     61.41     62.09    -22.20     24.00
   28.1265     60.49     62.20    -23.24     24.00
   28.1367     60.91     62.32    -22.93     24.00
   28.1469     62.55     62.43    -21.40     24.00
   28.1570     62.42     62.53    -21.63     24.00
   28.1672     61.58     62.63    -22.57     24.00
   28.1774     61.68     62.72    -22.56     24.00
   28.1875     61.95     62.81    -22.38     24.00
   28.1977     62.84     62.89    -21.57     24.00
   28.2079     63.05     62.96    -21.44     24.00
   28.2180     62.73     63.03    -21.83     24.00
   28.2282     64.07     63.10    -20.55     24.00
   28.2383     64.48     63.16    -20.20     24.00
   28.2485     65.54     63.21    -19.19     24.00
   28.2587     64.25     63.26    -20.53     24.00
   28.2688     65.27     63.30    -19.55     24.00
   28.2790     65.88     63.33    -18.98     24.00
   28.2892     65.03     63.36    -19.86     24.00
   28.2993     64.21     63.38    -20.70     24.00
   28.3095     65.04     63.40    -19.89     24.00
   28.3197     65.89     63.41    -19.05     24.00
   28.3298     64.35     63.42    -20.59     24.00
   28.3400     64.90     63.42    -20.04     24.00
   28.3502     65.26     63.41    -19.67     24.00
   28.3603     64.13     63.39    -20.79     24.00
   28.3705     64.45     63.37    -20.45     24.00
   28.3806     65.51     63.35    -19.36     24.00
   28.3908     64.60     63.32    -20.24     24.00
   28.4010     64.23     63.28    -20.57     24.00
   28.4111     65.61     63.23    -19.15     24.00
   28.4213     65.77     63.18    -18.94     24.00
   28.4315     65.71     63.13    -18.94     24.00
   28.4416     65.76     63.07    -18.83     24.00
   28.4518     65.51     63.00    -19.02     24.00
   28.4620     64.26     62.93    -20.19     24.00
   28.4721     65.19     62.85    -19.18     24.00
   28.4823     64.59     62.77    -19.70     24.00
   28.4925     64.34     62.68    -19.86     24.00
   28.5026     64.57     62.58    -19.54     24.00
   28.5128     65.38     62.49    -18.63     24.00
   28.5230     64.54     62.38    -19.36     24.00
   28.5331     64.33     62.27    -19.47     24.00
   28.5433     63.99     62.16    -19.69     24.00
   28.5534     62.96     62.04    -20.60     24.00
   28.5636     63.96     61.92    -19.48     24.00
   28.5738     64.42     61.79    -18.89     24.00
   28.5839     63.20     61.66    -19.98     24.00
   28.5941     62.72     61.52    -20.32     24.00
   28.6043     62.77     61.38    -20.13     24.00
   28.6144     63.10     61.24    -19.66     24.00
   28.6246     63.65     61.09    -18.96     24.00
   28.6348     64.73     60.94    -17.73     24.00
   28.6449     63.18     60.78    -19.13     24.00
   28.6551     62.23     60.62    -19.92     24.00
   28.6653     62.76     60.46    -19.23     24.00
   28.6754     62.81     60.30    -19.01     24.00
   28.6856     62.94     60.13    -18.71     24.00
   28.6957     62.17     59.96    -19.31     24.00
   28.7059     60.15     59.79    -21.16     24.00
   28.7161     61.27     59.61    -19.86     24.00
   28.7262     60.84     59.43    -20.12     24.00
   28.7364     59.72     59.25    -21.06     24.00
   28.7466     59.57     59.07    -21.02     24.00
   28.7567     60.39     58.89    -20.02     24.00
   28.7669     59.64     58.70    -20.58     24.00
   28.7771     59.27     58.51    -20.76     24.00
   28.7872     59.15     58.32    -20.70     24.00
   28.7974     57.45     58.13    -22.20     24.00
   28.8076     58.22     57.94    -21.24     24.00
   28.8177     59.24     57.75    -20.03     24.00
   28.8279     58.20     57.55    -20.87     24.00
   28.8381     58.99     57.36    -19.89     24.00
   28.8482     56.77     57.16    -21.91     24.00
   28.8584     56.96     56.96    -21.53     24.00
   28.8685     56.88     56.77    -21.41     24.00
   28.8787     57.35     56.57    -20.74     24.00
   28.8889     57.10     56.37    -20.80     24.00
   28.8990     56.05     56.18    -21.65     24.00
   28.9092     56.98     55.98    -20.52     24.00
   28.9194     56.10     55.78    -21.20     24.00
   28.9295     56.29     55.58    -20.82     24.00
   28.9397     56.18     55.39    -20.73     24.00
   28.9499     54.91     55.19    -21.80     24.00
   28.9600     56.25     55.00    -20.27     24.00
   28.9702     55.13     54.80    -21.20     24.00
   28.9804     54.66     54.61    -21.47     24.00
   28.9905     54.37     54.41    -21.57     24.00
   29.0007     54.22     54.22    -21.53     24.00
   29.0108     54.48     54.03    -21.08     24.00
   29.0210     54.12     53.84    -21.24     24.00
   29.0312     54.07     53.65    -21.10     24.00
   29.0413     54.09     53.46    -20.90     24.00
   29.0515     52.83     53.28    -21.97     24.00
   29.0617     52.96     53.09    -21.66     24.00
   29.0718     53.27     52.91    -21.16     24.00
   29.0820     51.46     52.73    -22.79     24.00
   29.0922     53.26     52.55    -20.81     24.00
   29.1023     51.68     52.37    -22.21     24.00
   29.1125     52.15     52.19    -21.57     24.00
   29.1227     52.71     52.02    -20.83     24.00
   29.1328     51.76     51.84    -21.61     24.00
   29.1430     52.36     51.67    -20.84     24.00
   29.1531     52.21     51.50    -20.82     24.00
   29.1633     51.13     51.34    -21.73     24.00
   29.1735     51.14     51.17    -21.55     24.00
   29.1836     51.29     51.01    -21.24     24.00
   29.1938     49.98     50.85    -22.39     24.00
   29.2040     50.76     50.69    -21.45     24.00
   29.2141     50.90     50.53    -21.15     24.00
   29.2243     50.23     50.37    -21.67     24.00
   29.2345     49.89     50.22    -21.85     24.00
   29.2446     49.06     50.07    -22.53     24.00
   29.2548     50.01     49.92    -21.44     24.00
   29.2650     49.17     49.77    -22.13     24.00
   29.2751     49.37     49.63    -21.78     24.00
   29.2853     49.02     49.49    -21.99     24.00
   29.2955     48.06     49.35    -22.81     24.00
   29.3056     48.54     49.21    -22.19     24.00
   29.3158     48.72     49.07    -21.88     24.00
   29.3259     48.37     48.94    -22.09     24.00
   29.3361     48.47     48.81    -21.86     24.00
   29.3463     48.15     48.68    -22.05     24.00
   29.3564     48.80     48.55    -21.27     24.00
   29.3666     48.02     48.42    -21.93     24.00
   29.3768     47.79     48.30    -22.03     24.00
   29.3869     47.23     48.18    -22.47     24.00
   29.3971     47.09     48.06    -22.49     24.00
   29.4073     47.93     47.94    -21.54     24.00
   29.4174     47.36     47.83    -21.99     24.00
   29.4276     46.22     47.71    -23.02     24.00
   29.4378     47.16     47.60    -21.96     24.00
   29.4479     47.21     47.49    -21.80     24.00
   29.4581     46.58     47.38    -22.33     24.00
   29.4682     47.45     47.28    -21.35     24.00
   29.4784     46.90     47.17    -21.79     24.00
   29.4886     46.83     47.07    -21.76     24.00
   29.4987     46.63     46.97    -21.86     24.00
   29.5089     46.06     46.87    -22.33     24.00
   29.5191     45.88     46.77    -22.41     24.00
   29.5292     46.53     46.67    -21.66     24.00
   29.5394     45.89     46.57    -22.21     24.00
   29.5496     45.75     46.48    -22.25     24.00
   29.5597     46.07     46.39    -21.84     24.00
   29.5699     44.42     46.30    -23.40     24.00
   29.5801     46.49     46.20    -21.24     24.00
   29.5902     45.35     46.12    -22.29     24.00
   29.6004     46.49     46.03    -21.06     24.00
   29.6106     45.99     45.94    -21.47     24.00
   29.6207     45.45     45.86    -21.93     24.00
   29.6309     45.54     45.77    -21.76     24.00
   29.6410     45.05     45.69    -22.16     24.00
   29.6512     45.20     45.61    -21.93     24.00
   29.6614     45.74     45.52    -21.31     24.00
   29.6715     44.66     45.44    -22.31     24.00
   29.6817     45.10     45.36    -21.79     24.00
   29.6919     43.82     45.28    -22.99     24.00
   29.7020     44.52     45.21    -22.21     24.00
   29.7122     43.51     45.13    -23.14     24.00
   29.7224     44.77     45.05    -21.80     24.00
   29.7325     45.29     44.97    -21.21     24.00
   29.7427     44.06     44.90    -22.36     24.00
   29.7529     44.02     44.82    -22.33     24.00
   29.7630     44.82     44.75    -21.45     24.00
   29.7732     43.96     44.67    -22.24     24.00
   29.7833     43.77     44.60    -22.35     24.00
   29.7935     44.16     44.52    -21.89     24.00
   29.8037     44.04     44.45    -21.94     24.00
   29.8138     44.01     44.38    -21.89     24.00
   29.8240     43.77     44.31    -22.06     24.00
   29.8342     44.66     44.23    -21.10     24.00
   29.8443     44.10     44.16    -21.58     24.00
   29.8545     43.38     44.09    -22.23     24.00
   29.8647     44.57     44.02    -20.97     24.00
   29.8748     43.39     43.94    -22.08     24.00
   29.8850     43.04     43.87    -22.35     24.00
   29.8952     42.94     43.80    -22.38     24.00
   29.9053     44.01     43.73    -21.24     24.00
   29.9155     43.12     43.65    -22.06     24.00
   29.9257     43.37     43.58    -21.74     24.00
   29.9358     43.34     43.51    -21.69     24.00
   29.9460     43.96     43.44    -21.00     24.00
   29.9561     42.82     43.37    -22.07     24.00
   29.9663     42.77     43.29    -22.05     24.00
   29.9765     43.01     43.22    -21.73     24.00
   29.9866     41.49     43.15    -23.18     24.00
   29.9968     43.10     43.07    -21.50     24.00
   30.0070     41.77     43.00    -22.75     24.00
   30.0171     42.50     42.93    -21.95     24.00
   30.0273     42.54     42.85    -21.84     24.00
   30.0375     43.84     42.78    -20.46     24.00
   30.0476     42.21     42.70    -22.02     24.00
   30.0578     42.28     42.63    -21.87     24.00
   30.0680     41.95     42.55    -22.13     24.00
   30.0781     41.76     42.48    -22.24     24.00
   30.0883     40.90     42.40    -23.03     24.00
   30.0984     42.84     42.33    -21.01     24.00
   30.1086     42.10     42.25    -21.67     24.00
   30.1188     41.05     42.17    -22.65     24.00
   30.1289     41.18     42.09    -22.44     24.00
   30.1391     42.29     42.02    -21.25     24.00
   30.1493     41.29     41.94    -22.17     24.00
   30.1594     40.65     41.86    -22.73     24.00
   30.1696     41.84     41.78    -21.47     24.00
   30.1798     41.20     41.70    -22.03     24.00
   30.1899     41.80     41.62    -21.35     24.00
   30.2001     40.68     41.54    -22.39     24.00
   30.2103     41.45     41.46    -21.54     24.00
   30.2204     41.01     41.38    -21.90     24.00
   30.2306     41.13     41.30    -21.69     24.00
   30.2408     41.76     41.22    -20.98     24.00
   30.2509     41.44     41.14    -21.22     24.00
   30.2611     40.14     41.05    -22.44     24.00
   30.2712     39.97     40.97    -22.53     24.00
   30.2814     41.10     40.89    -21.31     24.00
   30.2916     39.30     40.80    -23.03     24.00
   30.3017     39.45     40.72    -22.80     24.00
   30.3119     39.90     40.64    -22.26     24.00
   30.3221     39.80     40.55    -22.28     24.00
   30.3322     39.57     40.47    -22.42     24.00
   30.3424     40.60     40.38    -21.31     24.00
   30.3526     38.63     40.30    -23.19     24.00
   30.3627     40.09     40.21    -21.65     24.00
   30.3729     39.57     40.12    -22.08     24.00
   30.3831     38.65     40.04    -22.91     24.00
   30.3932     39.54     39.95    -21.94     24.00
   30.4034     39.01     39.86    -22.38     24.00
   30.4135     39.61     39.78    -21.69     24.00
   30.4237     39.01     39.69    -22.20     24.00
   30.4339     39.04     39.60    -22.09     24.00
   30.4440     37.65     39.51    -23.39     24.00
   30.4542     37.82     39.43    -23.13     24.00
   30.4644     38.84     39.34    -22.02     24.00
   30.4745     38.30     39.25    -22.47     24.00
   30.4847     38.25     39.16    -22.43     24.00
   30.4949     37.95     39.07    -22.65     24.00
   30.5050     37.34     38.98    -23.17     24.00
   30.5152     37.90     38.89    -22.52     24.00
   30.5254     38.02     38.80    -22.31     24.00
   30.5355     38.43     38.72    -21.81     24.00
   30.5457     38.60     38.63    -21.55     24.00
   30.5559     38.43     38.54    -21.63     24.00
   30.5660     36.98     38.45    -22.99     24.00
   30.5762     38.49     38.36    -21.39     24.00
   30.5863     37.55     38.27    -22.24     24.00
   30.5965     38.11     38.18    -21.59     24.00
   30.6067     37.72     38.09    -21.89     24.00
   30.6168     38.33     38.00    -21.19     24.00
   30.6270     36.35     37.91    -23.08     24.00
   30.6372     37.11     37.82    -22.23     24.00
   30.6473     37.34     37.73    -21.91     24.00
   30.6575     36.72     37.64    -22.44     24.00
   30.6677     37.57     37.55    -21.51     24.00
   30.6778     36.70     37.46    -22.29     24.00
   30.6880     36.24     37.37    -22.66     24.00
   30.6982     37.03     37.28    -21.78     24.00
   30.7083     37.02     37.20    -21.70     24.00
   30.7185     36.26     37.11    -22.37     24.00
   30.7286     36.18     37.02    -22.36     24.00
   30.7388     37.51     36.93    -20.94     24.00
   30.7490     36.38     36.84    -21.99     24.00
   30.7591     36.49     36.76    -21.79     24.00
   30.7693     36.82     36.67    -21.37     24.00
   30.7795     35.37     36.58    -22.73     24.00
   30.7896     35.37     36.49    -22.65     24.00
   30.7998     36.50     36.41    -21.43     24.00
   30.8100     36.17     36.32    -21.67     24.00
   30.8201     36.62     36.24    -21.14     24.00
   30.8303     36.26     36.15    -21.41     24.00
   30.8405     36.04     36.06    -21.55     24.00
   30.8506     34.76     35.98    -22.74     24.00
   30.8608     36.40     35.89    -21.02     24.00
   30.8710     36.16     35.81    -21.17     24.00
   30.8811     36.18     35.73    -21.07     24.00
   30.8913     35.22     35.64    -21.95     24.00
   30.9014     35.07     35.56    -22.02     24.00
   30.9116     35.00     35.48    -22.00     24.00
   30.9218     36.21     35.40    -20.71     24.00
   30.9319     35.75     35.32    -21.09     24.00
   30.9421     35.63     35.24    -21.13     24.00
   30.9523     35.48     35.16    -21.20     24.00
   30.9624     34.51     35.08    -22.09     24.00
   30.9726     35.79     35.00    -20.73     24.00
   30.9828     34.93     34.92    -21.51     24.00
   30.9929     34.64     34.84    -21.72     24.00
   31.0031     35.92     34.76    -20.37     24.00
   31.0133     35.51     34.68    -20.70     24.00
   31.0234     35.13     34.61    -21.00     24.00
   31.0336     35.04     34.53    -21.02     24.00
   31.0437     34.45     34.46    -21.53     24.00
   31.0539     34.49     34.38    -21.42     24.00
   31.0641     34.35     34.31    -21.48     24.00
   31.0742     34.52     34.24    -21.24     24.00
   31.0844     34.71     34.16    -20.98     24.00
   31.0946     35.18     34.09    -20.44     24.00
   31.1047     34.59     34.02    -20.96     24.00
   31.1149     34.73     33.95    -20.75     24.00
   31.1251     34.66     33.88    -20.75     24.00
   31.1352     35.16     33.81    -20.18     24.00
   31.1454     34.97     33.74    -20.30     24.00
   31.1556     34.80     33.68    -20.40     24.00
   31.1657     34.60     33.61    -20.53     24.00
   31.1759     34.82     33.54    -20.25     24.00
   31.1860     34.87     33.48    -20.13     24.00
   31.1962     33.85     33.42    -21.09     24.00
   31.2064     34.36     33.35    -20.52     24.00
   31.2165     34.63     33.29    -20.18     24.00
   31.2267     34.77     33.23    -19.98     24.00
   31.2369     34.16     33.17    -20.53     24.00
   31.2470     34.48     33.11    -20.15     24.00
   31.2572     35.54     33.05    -19.03     24.00
   31.2674     34.46     32.99    -20.05     24.00
   31.2775     33.95     32.93    -20.50     24.00
   31.2877     34.73     32.87    -19.67     24.00
   31.2979     33.95     32.81    -20.39     24.00
   31.3080     34.34     32.76    -19.94     24.00
   31.3182     34.40     32.70    -19.83     24.00
   31.3284     33.51     32.65    -20.66     24.00
   31.3385     34.43     32.60    -19.69     24.00
   31.3487     34.29     32.55    -19.78     24.00
   31.3588     33.52     32.50    -20.50     24.00
   31.3690     34.00     32.44    -19.97     24.00
   31.3792     33.82     32.39    -20.10     24.00
   31.3893     33.77     32.35    -20.10     24.00
   31.3995     34.27     32.30    -19.55     24.00
   31.4097     34.20     32.25    -19.58     24.00
   31.4198     34.08     32.21    -19.65     24.00
   31.4300     33.94     32.16    -19.74     24.00
   31.4402     33.99     32.12    -19.65     24.00
   31.4503     33.10     32.07    -20.50     24.00
   31.4605     33.48     32.03    -20.08     24.00
   31.4707     33.84     31.99    -19.67     24.00
   31.4808     32.76     31.95    -20.71     24.00
   31.4910     34.02     31.91    -19.41     24.00
   31.5011     33.64     31.87    -19.75     24.00
   31.5113     33.49     31.83    -19.87     24.00
   31.5215     34.09     31.80    -19.23     24.00
   31.5316     33.55     31.76    -19.73     24.00
   31.5418     33.44     31.72    -19.81     24.00
   31.5520     32.78     31.69    -20.43     24.00
   31.5621     33.61     31.66    -19.57     24.00
   31.5723     32.84     31.62    -20.31     24.00
   31.5825     33.59     31.59    -19.53     24.00
   31.5926     34.04     31.56    -19.05     24.00
   31.6028     33.08     31.53    -19.98     24.00
   31.6130     33.39     31.50    -19.64     24.00
   31.6231     33.95     31.47    -19.05     24.00
   31.6333     33.59     31.45    -19.38     24.00
   31.6435     32.81     31.42    -20.13     24.00
   31.6536     32.91     31.39    -20.01     24.00
   31.6638     33.41     31.37    -19.48     24.00
   31.6739     33.68     31.35    -19.19     24.00
   31.6841     33.30     31.32    -19.55     24.00
   31.6943     32.45     31.30    -20.38     24.00
   31.7044     32.81     31.28    -19.99     24.00
   31.7146     33.33     31.26    -19.45     24.00
   31.7248     32.84     31.24    -19.92     24.00
   31.7349     32.83     31.22    -19.92     24.00
   31.7451     33.40     31.20    -19.33     24.00
   31.7553     33.57     31.19    -19.14     24.00
   31.7654     32.36     31.17    -20.33     24.00
   31.7756     33.01     31.15    -19.67     24.00
   31.7858     33.07     31.14    -19.59     24.00
   31.7959     32.74     31.13    -19.91     24.00
   31.8061     33.37     31.11    -19.27     24.00
   31.8162     33.25     31.10    -19.38     24.00
   31.8264     32.90     31.09    -19.71     24.00
   31.8366     32.62     31.08    -19.98     24.00
   31.8467     32.75     31.07    -19.84     24.00
   31.8569     32.63     31.06    -19.95     24.00
   31.8671     33.68     31.05    -18.90     24.00
   31.8772     32.60     31.04    -19.97     24.00
   31.8874     32.90     31.04    -19.66     24.00
   31.8976     33.04     31.03    -19.52     24.00
   31.9077     33.04     31.03    -19.51     24.00
   31.9179     32.60     31.02    -19.95     24.00
   31.9281     32.35     31.02    -20.19     24.00
   31.9382     31.77     31.01    -20.77     24.00
   31.9484     32.65     31.01    -19.89     24.00
   31.9586     33.30     31.01    -19.23     24.00
   31.9687     32.72     31.01    -19.81     24.00
   31.9789     32.70     31.01    -19.83     24.00
   31.9890     33.22     31.01    -19.31     24.00
   31.9992     32.33     31.01    -20.20     24.00
   32.0094     32.69     31.01    -19.84     24.00
   32.0195     32.30     31.01    -20.24     24.00
   32.0297     33.10     31.01    -19.44     24.00
   32.0399     32.80     31.02    -19.74     24.00
   32.0500     33.31     31.02    -19.24     24.00
   32.0602     32.74     31.03    -19.81     24.00
   32.0704     32.84     31.03    -19.71     24.00
   32.0805     33.41     31.04    -19.15     24.00
   32.0907     32.65     31.04    -19.92     24.00
   32.1009     33.20     31.05    -19.37     24.00
   32.1110     33.07     31.06    -19.51     24.00
   32.1212     32.28     31.06    -20.31     24.00
   32.1313     33.26     31.07    -19.34     24.00
   32.1415     32.85     31.08    -19.75     24.00
   32.1517     32.51     31.09    -20.10     24.00
   32.1618     32.99     31.10    -19.63     24.00
   32.1720     32.59     31.11    -20.04     24.00
   32.1822     32.41     31.12    -20.23     24.00
   32.1923     32.60     31.13    -20.05     24.00
   32.2025     32.71     31.14    -19.96     24.00
   32.2127     31.27     31.15    -21.41     24.00
   32.2228     33.27     31.17    -19.42     24.00
   32.2330     32.36     31.18    -20.34     24.00
   32.2432     32.25     31.19    -20.47     24.00
   32.2533     32.53     31.21    -20.20     24.00
   32.2635     32.95     31.22    -19.79     24.00
   32.2737     32.33     31.23    -20.43     24.00
   32.2838     31.31     31.25    -21.46     24.00
   32.2940     32.58     31.26    -20.21     24.00
   32.3041     31.76     31.28    -21.04     24.00
   32.3143     31.79     31.29    -21.03     24.00
   32.3245     32.07     31.31    -20.76     24.00
   32.3346     32.51     31.32    -20.34     24.00
   32.3448     32.01     31.34    -20.85     24.00
   32.3550     33.24     31.36    -19.64     24.00
   32.3651     31.67     31.37    -21.23     24.00
   32.3753     32.27     31.39    -20.64     24.00
   32.3855     33.03     31.41    -19.90     24.00
   32.3956     32.45     31.42    -20.50     24.00
   32.4058     33.18     31.44    -19.78     24.00
   32.4160     33.40     31.46    -19.58     24.00
   32.4261     32.51     31.48    -20.49     24.00
   32.4363     33.10     31.49    -19.92     24.00
   32.4464     33.20     31.51    -19.84     24.00
   32.4566     33.20     31.53    -19.85     24.00
   32.4668     32.18     31.55    -20.89     24.00
   32.4769     31.79     31.57    -21.30     24.00
   32.4871     32.75     31.58    -20.36     24.00
   32.4973     32.48     31.60    -20.65     24.00
   32.5074     32.25     31.62    -20.89     24.00
   32.5176     31.69     31.64    -21.47     24.00
   32.5278     32.90     31.66    -20.28     24.00
   32.5379     31.90     31.68    -21.30     24.00
   32.5481     31.75     31.69    -21.47     24.00
   32.5583     32.85     31.71    -20.39     24.00
   32.5684     32.88     31.73    -20.37     24.00
   32.5786     32.23     31.75    -21.04     24.00
   32.5888     32.45     31.77    -20.84     24.00
   32.5989     32.51     31.79    -20.80     24.00
   32.6091     32.18     31.80    -21.15     24.00
   32.6192     32.49     31.82    -20.86     24.00
   32.6294     32.68     31.84    -20.68     24.00
   32.6396     31.60     31.86    -21.78     24.00
   32.6497     32.47     31.87    -20.93     24.00
   32.6599     33.02     31.89    -20.40     24.00
   32.6701     32.77     31.91    -20.66     24.00
   32.6802     31.83     31.93    -21.62     24.00
   32.6904     32.54     31.94    -20.93     24.00
   32.7006     31.83     31.96    -21.65     24.00
   32.7107     32.59     31.98    -20.91     24.00
   32.7209     32.51     31.99    -21.01     24.00
   32.7311     32.71     32.01    -20.82     24.00
   32.7412     32.43     32.03    -21.12     24.00
   32.7514     32.12     32.04    -21.44     24.00
   32.7615     32.37     32.06    -21.21     24.00
   32.7717     32.13     32.07    -21.46     24.00
   32.7819     31.65     32.09    -21.96     24.00
   32.7920     31.74     32.10    -21.88     24.00
   32.8022     33.17     32.11    -20.47     24.00
   32.8124     32.60     32.13    -21.05     24.00
   32.8225     32.34     32.14    -21.33     24.00
   32.8327     32.98     32.15    -20.70     24.00
   32.8429     31.87     32.17    -21.82     24.00
   32.8530     31.82     32.18    -21.88     24.00
   32.8632     32.35     32.19    -21.37     24.00
   32.8734     32.32     32.20    -21.41     24.00
   32.8835     32.13     32.21    -21.61     24.00
   32.8937     32.84     32.23    -20.91     24.00
   32.9039     32.45     32.24    -21.31     24.00
   32.9140     32.05     32.25    -21.72     24.00
   32.9242     32.80     32.26    -20.98     24.00
   32.9343     32.58     32.26    -21.21     24.00
   32.9445     32.35     32.27    -21.45     24.00
   32.9547     31.84     32.28    -21.97     24.00
   32.9648     31.66     32.29    -22.15     24.00
   32.9750     31.96     32.30    -21.86     24.00
   32.9852     32.24     32.30    -21.59     24.00
   32.9953     32.63     32.31    -21.20     24.00
   33.0055     31.90     32.32    -21.94     24.00
   33.0157     33.84     32.32    -20.00     24.00
   33.0258     32.24     32.33    -21.61     24.00
   33.0360     31.79     32.33    -22.06     24.00
   33.0462     32.26     32.33    -21.60     24.00
   33.0563     32.68     32.34    -21.18     24.00
   33.0665     32.93     32.34    -20.93     24.00
   33.0766     33.02     32.34    -20.85     24.00
   33.0868     32.80     32.34    -21.07     24.00
   33.0970     32.18     32.34    -21.69     24.00
   33.1071     32.60     32.34    -21.27     24.00
   33.1173     32.45     32.34    -21.42     24.00
   33.1275     32.61     32.34    -21.26     24.00
   33.1376     32.49     32.34    -21.38     24.00
   33.1478     32.82     32.34    -21.04     24.00
   33.1580     32.54     32.34    -21.32     24.00
   33.1681     32.09     32.33    -21.77     24.00
   33.1783     32.70     32.33    -21.15     24.00
   33.1885     31.80     32.33    -22.05     24.00
   33.1986     32.55     32.32    -21.30     24.00
   33.2088     33.11     32.32    -20.73     24.00
   33.2189     32.95     32.31    -20.88     24.00
   33.2291     32.38     32.30    -21.45     24.00
   33.2393     32.12     32.30    -21.70     24.00
   33.2494     32.43     32.29    -21.38     24.00
   33.2596     32.71     32.28    -21.09     24.00
   33.2698     32.87     32.27    -20.93     24.00
   33.2799     32.09     32.26    -21.70     24.00
   33.2901     32.89     32.25    -20.89     24.00
   33.3003     33.27     32.24    -20.49     24.00
   33.3104     32.82     32.23    -20.93     24.00
   33.3206     32.76     32.22    -20.98     24.00
   33.3308     33.02     32.20    -20.71     24.00
   33.3409     32.29     32.19    -21.42     24.00
   33.3511     34.15     32.18    -19.55     24.00
   33.3613     32.77     32.16    -20.92     24.00
   33.3714     32.10     32.15    -21.57     24.00
   33.3816     31.98     32.13    -21.67     24.00
   33.3917     32.34     32.11    -21.30     24.00
   33.4019     32.66     32.10    -20.96     24.00
   33.4121     32.73     32.08    -20.87     24.00
   33.4222     32.02     32.06    -21.57     24.00
   33.4324     32.60     32.04    -20.97     24.00
   33.4426     33.35     32.02    -20.20     24.00
   33.4527     32.38     32.00    -21.15     24.00
   33.4629     32.27     31.98    -21.24     24.00
   33.4731     32.18     31.96    -21.31     24.00
   33.4832     31.58     31.94    -21.88     24.00
   33.4934     32.45     31.92    -20.99     24.00
   33.5036     31.91     31.90    -21.51     24.00
   33.5137     33.15     31.87    -20.25     24.00
   33.5239     31.71     31.85    -21.66     24.00
   33.5340     31.95     31.82    -21.40     24.00
   33.5442     32.48     31.80    -20.84     24.00
   33.5544     30.66     31.77    -22.64     24.00
   33.5645     31.59     31.75    -21.68     24.00
   33.5747     31.87     31.72    -21.37     24.00
   33.5849     31.99     31.69    -21.23     24.00
   33.5950     31.70     31.67    -21.49     24.00
   33.6052     31.51     31.64    -21.65     24.00
   33.6154     31.49     31.61    -21.64     24.00
   33.6255     32.04     31.58    -21.06     24.00
   33.6357     30.71     31.55    -22.36     24.00
   33.6459     31.13     31.52    -21.91     24.00
   33.6560     31.25     31.49    -21.76     24.00
   33.6662     31.31     31.46    -21.67     24.00
   33.6764     31.70     31.43    -21.25     24.00
   33.6865     30.92     31.39    -22.00     24.00
   33.6967     31.12     31.36    -21.77     24.00
   33.7068     30.94     31.33    -21.91     24.00
   33.7170     31.34     31.30    -21.48     24.00
   33.7272     30.85     31.26    -21.94     24.00
   33.7373     28.79     31.23    -23.96     24.00
   33.7475     30.97     31.19    -21.75     24.00
   33.7577     30.43     31.16    -22.25     24.00
   33.7678     30.04     31.12    -22.61     24.00
   33.7780     30.70     31.09    -21.91     24.00
   33.7882     29.52     31.05    -23.05     24.00
   33.7983     29.59     31.01    -22.95     24.00
   33.8085     30.41     30.98    -22.09     24.00
   33.8187     30.22     30.94    -22.24     24.00
   33.8288     30.10     30.90    -22.33     24.00
   33.8390     30.16     30.86    -22.23     24.00
   33.8491     29.71     30.83    -22.64     24.00
   33.8593     29.49     30.79    -22.82     24.00
   33.8695     29.42     30.75    -22.85     24.00
   33.8796     29.31     30.71    -22.92     24.00
   33.8898     29.07     30.67    -23.12     24.00
   33.9000     29.15     30.63    -23.00     24.00
   33.9101     28.91     30.59    -23.21     24.00
   33.9203     29.32     30.55    -22.75     24.00
   33.9305     28.84     30.51    -23.19     24.00
   33.9406     29.54     30.47    -22.45     24.00
   33.9508     28.44     30.43    -23.51     24.00
   33.9610     28.74     30.39    -23.17     24.00
   33.9711     29.06     30.35    -22.81     24.00
   33.9813     28.90     30.30    -22.93     24.00
   33.9915     28.65     30.26    -23.14     24.00
   34.0016     28.62     30.22    -23.13     24.00
   34.0118     28.60     30.18    -23.10     24.00
   34.0219     28.61     30.14    -23.05     24.00
   34.0321     29.12     30.09    -22.50     24.00
   34.0423     28.43     30.05    -23.15     24.00
   34.0524     28.37     30.01    -23.16     24.00
   34.0626     28.50     29.97    -22.99     24.00
   34.0728     28.98     29.92    -22.47     24.00
   34.0829     28.00     29.88    -23.40     24.00
   34.0931     28.94     29.84    -22.42     24.00
   34.1033     27.64     29.79    -23.68     24.00
   34.1134     28.24     29.75    -23.03     24.00
   34.1236     28.52     29.71    -22.71     24.00
   34.1338     27.97     29.66    -23.22     24.00
   34.1439     28.62     29.62    -22.52     24.00
   34.1541     27.71     29.58    -23.39     24.00
   34.1642     27.85     29.53    -23.21     24.00
   34.1744     28.10     29.49    -22.91     24.00
   34.1846     27.59     29.44    -23.38     24.00
   34.1947     26.90     29.40    -24.02     24.00
   34.2049     27.04     29.36    -23.84     24.00
   34.2151     27.85     29.31    -22.99     24.00
   34.2252     27.40     29.27    -23.39     24.00
   34.2354     28.05     29.22    -22.70     24.00
   34.2456     27.44     29.18    -23.26     24.00
   34.2557     27.47     29.14    -23.19     24.00
   34.2659     27.38     29.09    -23.24     24.00
   34.2761     27.95     29.05    -22.62     24.00
   34.2862     27.15     29.01    -23.38     24.00
   34.2964     27.34     28.96    -23.15     24.00
   34.3066     27.51     28.92    -22.93     24.00
   34.3167     27.35     28.87    -23.05     24.00
   34.3269     27.66     28.83    -22.69     24.00
   34.3370     27.37     28.79    -22.94     24.00
   34.3472     27.22     28.74    -23.05     24.00
   34.3574     27.35     28.70    -22.87     24.00
   34.3675     27.33     28.66    -22.85     24.00
   34.3777     26.89     28.62    -23.25     24.00
   34.3879     27.38     28.57    -22.72     24.00
   34.3980     27.43     28.53    -22.62     24.00
   34.4082     27.45     28.49    -22.56     24.00
   34.4184     26.43     28.44    -23.54     24.00
   34.4285     26.30     28.40    -23.63     24.00
   34.4387     26.73     28.36    -23.15     24.00
   34.4489     26.78     28.32    -23.06     24.00
   34.4590     27.84     28.28    -21.96     24.00
   34.4692     26.67     28.23    -23.09     24.00
   34.4793     27.31     28.19    -22.41     24.00
   34.4895     26.22     28.15    -23.46     24.00
   34.4997     26.21     28.11    -23.42     24.00
   34.5098     27.99     28.07    -21.60     24.00
   34.5200     26.83     28.03    -22.72     24.00
   34.5302     26.98     27.99    -22.53     24.00
   34.5403     26.89     27.95    -22.58     24.00
   34.5505     26.51     27.91    -22.92     24.00
   34.5607     26.37     27.87    -23.02     24.00
   34.5708     26.08     27.83    -23.27     24.00
   34.5810     26.76     27.79    -22.55     24.00
   34.5912     27.24     27.75    -22.03     24.00
   34.6013     26.32     27.71    -22.91     24.00
   34.6115     25.93     27.67    -23.26     24.00
   34.6217     27.23     27.63    -21.93     24.00
   34.6318     26.44     27.59    -22.68     24.00
   34.6420     26.94     27.56    -22.14     24.00
   34.6521     26.80     27.52    -22.24     24.00
   34.6623     25.91     27.48    -23.09     24.00
   34.6725     26.34     27.44    -22.63     24.00
   34.6826     26.10     27.41    -22.83     24.00
   34.6928     26.02     27.37    -22.87     24.00
   34.7030     26.10     27.33    -22.76     24.00
   34.7131     26.81     27.30    -22.01     24.00
   34.7233     26.52     27.26    -22.26     24.00
   34.7335     26.67     27.22    -22.08     24.00
   34.7436     26.84     27.19    -21.87     24.00
   34.7538     26.30     27.15    -22.38     24.00
   34.7640     26.40     27.12    -22.24     24.00
   34.7741     26.32     27.08    -22.29     24.00
   34.7843     26.38     27.05    -22.19     24.00
   34.7944     26.47     27.01    -22.07     24.00
   34.8046     26.54     26.98    -21.96     24.00
   34.8148     26.04     26.95    -22.43     24.00
   34.8249     25.77     26.91    -22.67     24.00
   34.8351     26.29     26.88    -22.11     24.00
   34.8453     26.22     26.85    -22.15     24.00
   34.8554     26.31     26.82    -22.03     24.00
   34.8656     26.28     26.78    -22.03     24.00
   34.8758     25.73     26.75    -22.55     24.00
   34.8859     26.09     26.72    -22.15     24.00
   34.8961     26.10     26.69    -22.11     24.00
   34.9063     26.38     26.66    -21.80     24.00
   34.9164     26.87     26.63    -21.28     24.00
   34.9266     25.48     26.60    -22.64     24.00
   34.9367     25.95     26.57    -22.14     24.00
   34.9469     26.52     26.54    -21.54     24.00
   34.9571     26.40     26.51    -21.63     24.00
   34.9672     26.34     26.48    -21.66     24.00
   34.9774     25.80     26.45    -22.17     24.00
   34.9876     26.40     26.42    -21.55     24.00
   34.9977     26.15     26.39    -21.77     24.00
   35.0079     25.19     26.37    -22.70     24.00
   35.0181     25.64     26.34    -22.22     24.00
   35.0282     25.80     26.31    -22.03     24.00
   35.0384     25.99     26.28    -21.82     24.00
   35.0486     26.05     26.26    -21.73     24.00
   35.0587     26.10     26.23    -21.65     24.00
   35.0689     26.05     26.20    -21.68     24.00
   35.0791     25.16     26.18    -22.54     24.00
   35.0892     25.52     26.15    -22.16     24.00
   35.0994     25.84     26.13    -21.81     24.00
   35.1095     26.22     26.10    -21.41     24.00
   35.1197     26.07     26.08    -21.53     24.00
   35.1299     25.22     26.05    -22.36     24.00
   35.1400     25.82     26.03    -21.73     24.00
   35.1502     25.55     26.01    -21.98     24.00
   35.1604     25.68     25.98    -21.83     24.00
   35.1705     26.04     25.96    -21.44     24.00
   35.1807     25.95     25.94    -21.51     24.00
   35.1909     25.69     25.91    -21.75     24.00
   35.2010     25.34     25.89    -22.08     24.00
   35.2112     25.26     25.87    -22.13     24.00
   35.2214     25.34     25.85    -22.03     24.00
   35.2315     25.51     25.83    -21.84     24.00
   35.2417     25.89     25.81    -21.44     24.00
   35.2518     24.88     25.79    -22.43     24.00
   35.2620     25.07     25.77    -22.22     24.00
   35.2722     25.68     25.75    -21.59     24.00
   35.2823     24.95     25.73    -22.30     24.00
   35.2925     25.54     25.71    -21.69     24.00
   35.3027     26.43     25.69    -20.78     24.00
   35.3128     25.09     25.67    -22.10     24.00
   35.3230     24.85     25.65    -22.32     24.00
   35.3332     25.51     25.63    -21.64     24.00
   35.3433     25.87     25.61    -21.26     24.00
   35.3535     26.02     25.59    -21.10     24.00
   35.3637     25.87     25.57    -21.23     24.00
   35.3738     25.90     25.56    -21.18     24.00
   35.3840     25.23     25.54    -21.83     24.00
   35.3942     25.16     25.52    -21.89     24.00
   35.4043     24.91     25.51    -22.12     24.00
   35.4145     25.05     25.49    -21.96     24.00
   35.4246     24.84     25.47    -22.16     24.00
   35.4348     25.44     25.46    -21.54     24.00
   35.4450     26.05     25.44    -20.91     24.00
   35.4551     25.58     25.43    -21.37     24.00
   35.4653     24.86     25.41    -22.07     24.00
   35.4755     25.78     25.39    -21.14     24.00
   35.4856     24.32     25.38    -22.58     24.00
   35.4958     25.47     25.36    -21.42     24.00
   35.5060     25.10     25.35    -21.77     24.00
   35.5161     25.52     25.34    -21.34     24.00
   35.5263     25.51     25.32    -21.34     24.00
   35.5365     25.24     25.31    -21.59     24.00
   35.5466     25.04     25.29    -21.78     24.00
   35.5568     25.13     25.28    -21.68     24.00
   35.5669     24.76     25.27    -22.03     24.00
   35.5771     25.55     25.26    -21.23     24.00
   35.5873     25.56     25.24    -21.21     24.00
   35.5974     24.57     25.23    -22.18     24.00
   35.6076     24.26     25.22    -22.48     24.00
   35.6178     25.01     25.21    -21.72     24.00
   35.6279     25.24     25.19    -21.48     24.00
   35.6381     24.82     25.18    -21.89     24.00
   35.6483     24.84     25.17    -21.85     24.00
   35.6584     24.91     25.16    -21.77     24.00
   35.6686     25.80     25.15    -20.87     24.00
   35.6788     25.32     25.14    -21.34     24.00
   35.6889     25.45     25.13    -21.20     24.00
   35.6991     24.70     25.11    -21.94     24.00
   35.7093     25.28     25.10    -21.35     24.00
   35.7194     25.17     25.09    -21.45     24.00
   35.7296     25.05     25.08    -21.56     24.00
   35.7397     25.35     25.07    -21.25     24.00
   35.7499     24.95     25.06    -21.64     24.00
   35.7601     25.67     25.05    -20.91     24.00
   35.7702     25.46     25.05    -21.11     24.00
   35.7804     24.35     25.04    -22.21     24.00
   35.7906     24.98     25.03    -21.57     24.00
   35.8007     24.20     25.02    -22.34     24.00
   35.8109     24.71     25.01    -21.82     24.00
   35.8211     24.99     25.00    -21.53     24.00
   35.8312     24.86     24.99    -21.66     24.00
   35.8414     24.09     24.98    -22.42     24.00
   35.8516     25.20     24.98    -21.30     24.00
   35.8617     25.63     24.97    -20.86     24.00
   35.8719     25.03     24.96    -21.45     24.00
   35.8820     24.91     24.95    -21.57     24.00
   35.8922     24.87     24.94    -21.60     24.00
   35.9024     24.99     24.94    -21.47     24.00
   35.9125     24.74     24.93    -21.71     24.00
   35.9227     24.40     24.92    -22.05     24.00
   35.9329     24.49     24.91    -21.95     24.00
   35.9430     24.71     24.91    -21.72     24.00
   35.9532     25.55     24.90    -20.87     24.00
   35.9634     25.02     24.89    -21.40     24.00
   35.9735     25.09     24.89    -21.32     24.00
   35.9837     24.68     24.88    -21.72     24.00
   35.9939     24.55     24.87    -21.85     24.00
