 => TITLE: 
 => Data file name: C:\Users\stefano\Nextcloud2\uni\master-thesis\XRD\data\G308\G308--5-40-0.01-1000ms.xy
 => Instrm        :    1
 => Lambda(1&2)   :   1.54060  1.54060
 => Numb.of.points:      2951
 => Numb.of.peaks :         8
    2Theta     Yobs     Ycalc  Yobs-Ycal    Backg    Bragg     Posr  Intensity   FWHM    Eta
    6.0086     21.43     26.96    -33.49     24.00   18.5108     -4.22     131.93  0.7971  0.4268
    6.0187     21.21     26.97    -33.72     24.00   20.2532     -4.22      46.12  1.3725  0.4268
    6.0289     20.90     26.97    -34.03     24.00   22.3324     -4.22      94.15  1.1284  0.4268
    6.0391     21.38     26.97    -33.56     24.00   28.2565     -4.22      44.40  1.4793  0.4268
    6.0492     20.75     26.98    -34.19     24.00   29.7515     -4.22      31.87  2.6955  0.4268
    6.0594     21.27     26.98    -33.68     24.00   33.3281     -4.22       8.72  2.6955  0.4268
    6.0696     21.48     26.99    -33.47     24.00   17.5000     -4.22     105.78  2.6955  0.4268
    6.0797     21.33     26.99    -33.63     24.00   19.9509     -4.22     917.65  9.0491  0.4268
    6.0899     20.87     27.00    -34.09     24.00
    6.1001     21.26     27.00    -33.70     24.00
    6.1102     20.88     27.01    -34.09     24.00
    6.1204     21.79     27.01    -33.18     24.00
    6.1306     21.07     27.02    -33.91     24.00
    6.1407     20.57     27.02    -34.41     24.00
    6.1509     21.24     27.03    -33.75     24.00
    6.1611     21.07     27.03    -33.92     24.00
    6.1712     20.73     27.04    -34.27     24.00
    6.1814     20.27     27.04    -34.73     24.00
    6.1915     20.98     27.05    -34.03     24.00
    6.2017     20.35     27.05    -34.66     24.00
    6.2119     20.54     27.06    -34.48     24.00
    6.2220     20.77     27.06    -34.25     24.00
    6.2322     20.90     27.07    -34.13     24.00
    6.2424     20.30     27.07    -34.73     24.00
    6.2525     20.74     27.08    -34.30     24.00
    6.2627     20.38     27.08    -34.66     24.00
    6.2729     20.59     27.09    -34.46     24.00
    6.2830     20.49     27.09    -34.56     24.00
    6.2932     20.24     27.10    -34.82     24.00
    6.3034     20.97     27.10    -34.09     24.00
    6.3135     20.55     27.11    -34.52     24.00
    6.3237     20.46     27.11    -34.61     24.00
    6.3338     20.75     27.12    -34.33     24.00
    6.3440     20.83     27.12    -34.25     24.00
    6.3542     20.77     27.13    -34.32     24.00
    6.3643     20.00     27.13    -35.09     24.00
    6.3745     20.24     27.14    -34.86     24.00
    6.3847     20.15     27.14    -34.95     24.00
    6.3948     20.09     27.15    -35.02     24.00
    6.4050     19.77     27.15    -35.34     24.00
    6.4152     19.82     27.16    -35.30     24.00
    6.4253     20.35     27.16    -34.77     24.00
    6.4355     20.16     27.17    -34.97     24.00
    6.4457     20.63     27.17    -34.50     24.00
    6.4558     20.85     27.18    -34.29     24.00
    6.4660     20.16     27.18    -34.99     24.00
    6.4762     20.45     27.19    -34.70     24.00
    6.4863     19.65     27.19    -35.51     24.00
    6.4965     19.70     27.20    -35.46     24.00
    6.5066     20.48     27.20    -34.69     24.00
    6.5168     19.70     27.21    -35.47     24.00
    6.5270     20.46     27.22    -34.72     24.00
    6.5371     20.62     27.22    -34.56     24.00
    6.5473     19.85     27.23    -35.34     24.00
    6.5575     20.11     27.23    -35.08     24.00
    6.5676     20.18     27.24    -35.02     24.00
    6.5778     20.79     27.24    -34.41     24.00
    6.5880     20.58     27.25    -34.63     24.00
    6.5981     20.50     27.25    -34.72     24.00
    6.6083     20.72     27.26    -34.50     24.00
    6.6185     20.69     27.26    -34.54     24.00
    6.6286     20.32     27.27    -34.91     24.00
    6.6388     20.70     27.28    -34.54     24.00
    6.6489     20.26     27.28    -34.98     24.00
    6.6591     20.68     27.29    -34.57     24.00
    6.6693     20.27     27.29    -34.99     24.00
    6.6794     20.20     27.30    -35.06     24.00
    6.6896     20.78     27.30    -34.49     24.00
    6.6998     19.52     27.31    -35.75     24.00
    6.7099     20.86     27.32    -34.42     24.00
    6.7201     20.26     27.32    -35.02     24.00
    6.7303     19.84     27.33    -35.45     24.00
    6.7404     20.06     27.33    -35.24     24.00
    6.7506     20.55     27.34    -34.75     24.00
    6.7608     20.61     27.35    -34.70     24.00
    6.7709     20.01     27.35    -35.30     24.00
    6.7811     20.93     27.36    -34.39     24.00
    6.7913     20.40     27.36    -34.92     24.00
    6.8014     20.37     27.37    -34.96     24.00
    6.8116     20.47     27.37    -34.87     24.00
    6.8217     21.04     27.38    -34.30     24.00
    6.8319     20.98     27.39    -34.37     24.00
    6.8421     20.45     27.39    -34.90     24.00
    6.8522     20.32     27.40    -35.04     24.00
    6.8624     21.52     27.40    -33.85     24.00
    6.8726     20.51     27.41    -34.86     24.00
    6.8827     20.66     27.42    -34.72     24.00
    6.8929     20.40     27.42    -34.99     24.00
    6.9031     21.44     27.43    -33.95     24.00
    6.9132     20.83     27.44    -34.57     24.00
    6.9234     21.24     27.44    -34.16     24.00
    6.9336     20.87     27.45    -34.54     24.00
    6.9437     20.69     27.45    -34.73     24.00
    6.9539     20.54     27.46    -34.88     24.00
    6.9640     20.54     27.47    -34.89     24.00
    6.9742     20.62     27.47    -34.81     24.00
    6.9844     20.05     27.48    -35.39     24.00
    6.9945     21.17     27.49    -34.28     24.00
    7.0047     21.46     27.49    -33.99     24.00
    7.0149     21.57     27.50    -33.89     24.00
    7.0250     20.04     27.50    -35.43     24.00
    7.0352     21.11     27.51    -34.36     24.00
    7.0454     20.49     27.52    -34.99     24.00
    7.0555     20.27     27.52    -35.22     24.00
    7.0657     21.18     27.53    -34.31     24.00
    7.0759     21.49     27.54    -34.01     24.00
    7.0860     21.00     27.54    -34.51     24.00
    7.0962     20.60     27.55    -34.91     24.00
    7.1064     21.12     27.56    -34.40     24.00
    7.1165     21.41     27.56    -34.12     24.00
    7.1267     21.15     27.57    -34.38     24.00
    7.1368     21.21     27.58    -34.33     24.00
    7.1470     20.24     27.58    -35.31     24.00
    7.1572     20.90     27.59    -34.65     24.00
    7.1673     21.04     27.60    -34.52     24.00
    7.1775     20.55     27.60    -35.02     24.00
    7.1877     20.88     27.61    -34.69     24.00
    7.1978     21.14     27.62    -34.44     24.00
    7.2080     20.09     27.62    -35.50     24.00
    7.2182     21.19     27.63    -34.40     24.00
    7.2283     22.31     27.64    -33.29     24.00
    7.2385     20.20     27.65    -35.41     24.00
    7.2487     21.12     27.65    -34.49     24.00
    7.2588     21.07     27.66    -34.55     24.00
    7.2690     21.20     27.67    -34.43     24.00
    7.2791     21.16     27.67    -34.48     24.00
    7.2893     21.88     27.68    -33.76     24.00
    7.2995     20.68     27.69    -34.97     24.00
    7.3096     20.76     27.69    -34.90     24.00
    7.3198     21.31     27.70    -34.35     24.00
    7.3300     21.79     27.71    -33.88     24.00
    7.3401     21.03     27.72    -34.65     24.00
    7.3503     21.41     27.72    -34.28     24.00
    7.3605     21.30     27.73    -34.39     24.00
    7.3706     21.80     27.74    -33.90     24.00
    7.3808     22.07     27.75    -33.64     24.00
    7.3910     21.46     27.75    -34.25     24.00
    7.4011     21.49     27.76    -34.23     24.00
    7.4113     21.70     27.77    -34.03     24.00
    7.4215     21.28     27.78    -34.46     24.00
    7.4316     21.38     27.78    -34.36     24.00
    7.4418     21.63     27.79    -34.12     24.00
    7.4519     21.77     27.80    -33.99     24.00
    7.4621     21.63     27.81    -34.14     24.00
    7.4723     21.30     27.81    -34.47     24.00
    7.4824     22.10     27.82    -33.68     24.00
    7.4926     21.85     27.83    -33.94     24.00
    7.5028     21.55     27.84    -34.25     24.00
    7.5129     21.81     27.84    -34.00     24.00
    7.5231     21.40     27.85    -34.41     24.00
    7.5333     21.12     27.86    -34.70     24.00
    7.5434     22.20     27.87    -33.63     24.00
    7.5536     21.63     27.87    -34.21     24.00
    7.5638     22.36     27.88    -33.48     24.00
    7.5739     22.37     27.89    -33.48     24.00
    7.5841     21.48     27.90    -34.38     24.00
    7.5942     22.00     27.91    -33.87     24.00
    7.6044     22.40     27.91    -33.48     24.00
    7.6146     22.17     27.92    -33.71     24.00
    7.6247     22.09     27.93    -33.80     24.00
    7.6349     21.99     27.94    -33.91     24.00
    7.6451     22.58     27.95    -33.33     24.00
    7.6552     22.58     27.95    -33.34     24.00
    7.6654     21.62     27.96    -34.30     24.00
    7.6756     22.07     27.97    -33.86     24.00
    7.6857     22.17     27.98    -33.77     24.00
    7.6959     21.89     27.99    -34.06     24.00
    7.7061     22.46     28.00    -33.50     24.00
    7.7162     22.99     28.00    -32.98     24.00
    7.7264     21.86     28.01    -34.11     24.00
    7.7365     22.22     28.02    -33.76     24.00
    7.7467     22.46     28.03    -33.53     24.00
    7.7569     20.98     28.04    -35.02     24.00
    7.7670     22.62     28.05    -33.39     24.00
    7.7772     22.96     28.06    -33.06     24.00
    7.7874     21.55     28.06    -34.48     24.00
    7.7975     23.54     28.07    -32.49     24.00
    7.8077     22.93     28.08    -33.11     24.00
    7.8179     21.80     28.09    -34.25     24.00
    7.8280     22.10     28.10    -33.96     24.00
    7.8382     22.43     28.11    -33.64     24.00
    7.8484     21.96     28.12    -34.12     24.00
    7.8585     22.22     28.13    -33.87     24.00
    7.8687     22.24     28.13    -33.86     24.00
    7.8789     22.77     28.14    -33.33     24.00
    7.8890     22.46     28.15    -33.65     24.00
    7.8992     22.70     28.16    -33.42     24.00
    7.9093     22.97     28.17    -33.16     24.00
    7.9195     22.55     28.18    -33.59     24.00
    7.9297     22.80     28.19    -33.35     24.00
    7.9398     22.15     28.20    -34.01     24.00
    7.9500     23.04     28.21    -33.13     24.00
    7.9602     23.09     28.22    -33.09     24.00
    7.9703     23.46     28.22    -32.73     24.00
    7.9805     22.63     28.23    -33.57     24.00
    7.9907     22.91     28.24    -33.30     24.00
    8.0008     22.86     28.25    -33.35     24.00
    8.0110     22.98     28.26    -33.24     24.00
    8.0212     23.02     28.27    -33.21     24.00
    8.0313     22.35     28.28    -33.89     24.00
    8.0415     22.69     28.29    -33.56     24.00
    8.0516     23.07     28.30    -33.19     24.00
    8.0618     23.30     28.31    -32.97     24.00
    8.0720     22.43     28.32    -33.85     24.00
    8.0821     23.34     28.33    -32.95     24.00
    8.0923     23.02     28.34    -33.28     24.00
    8.1025     22.66     28.35    -33.65     24.00
    8.1126     23.15     28.36    -33.17     24.00
    8.1228     23.92     28.37    -32.41     24.00
    8.1330     22.87     28.38    -33.47     24.00
    8.1431     23.21     28.39    -33.14     24.00
    8.1533     22.85     28.40    -33.51     24.00
    8.1635     23.50     28.41    -32.87     24.00
    8.1736     23.45     28.42    -32.93     24.00
    8.1838     23.82     28.43    -32.57     24.00
    8.1940     22.66     28.44    -33.74     24.00
    8.2041     24.24     28.45    -32.17     24.00
    8.2143     24.01     28.46    -32.41     24.00
    8.2244     23.20     28.47    -33.23     24.00
    8.2346     23.41     28.48    -33.03     24.00
    8.2448     23.67     28.49    -32.78     24.00
    8.2549     23.71     28.50    -32.75     24.00
    8.2651     23.23     28.51    -33.24     24.00
    8.2753     23.57     28.52    -32.91     24.00
    8.2854     24.33     28.53    -32.16     24.00
    8.2956     24.02     28.54    -32.48     24.00
    8.3058     23.29     28.55    -33.23     24.00
    8.3159     24.13     28.56    -32.40     24.00
    8.3261     23.97     28.57    -32.57     24.00
    8.3363     22.73     28.59    -33.82     24.00
    8.3464     24.18     28.60    -32.38     24.00
    8.3566     23.85     28.61    -32.72     24.00
    8.3667     23.49     28.62    -33.09     24.00
    8.3769     23.84     28.63    -32.75     24.00
    8.3871     24.18     28.64    -32.42     24.00
    8.3972     23.27     28.65    -33.34     24.00
    8.4074     24.20     28.66    -32.42     24.00
    8.4176     23.80     28.67    -32.84     24.00
    8.4277     24.02     28.68    -32.63     24.00
    8.4379     24.29     28.70    -32.37     24.00
    8.4481     23.99     28.71    -32.68     24.00
    8.4582     24.45     28.72    -32.23     24.00
    8.4684     25.30     28.73    -31.39     24.00
    8.4786     24.09     28.74    -32.61     24.00
    8.4887     23.49     28.75    -33.23     24.00
    8.4989     24.46     28.76    -32.27     24.00
    8.5091     23.80     28.78    -32.94     24.00
    8.5192     24.67     28.79    -32.08     24.00
    8.5294     24.85     28.80    -31.91     24.00
    8.5395     24.12     28.81    -32.65     24.00
    8.5497     24.93     28.82    -31.86     24.00
    8.5599     24.94     28.84    -31.86     24.00
    8.5700     25.29     28.85    -31.52     24.00
    8.5802     24.53     28.86    -32.29     24.00
    8.5904     24.05     28.87    -32.78     24.00
    8.6005     24.66     28.88    -32.18     24.00
    8.6107     24.95     28.90    -31.91     24.00
    8.6209     24.38     28.91    -32.49     24.00
    8.6310     25.18     28.92    -31.70     24.00
    8.6412     24.43     28.93    -32.46     24.00
    8.6514     24.37     28.94    -32.54     24.00
    8.6615     24.60     28.96    -32.32     24.00
    8.6717     24.45     28.97    -32.48     24.00
    8.6818     25.28     28.98    -31.66     24.00
    8.6920     24.98     28.99    -31.98     24.00
    8.7022     24.84     29.01    -32.13     24.00
    8.7123     25.39     29.02    -31.59     24.00
    8.7225     24.92     29.03    -32.07     24.00
    8.7327     24.57     29.04    -32.44     24.00
    8.7428     25.69     29.06    -31.33     24.00
    8.7530     25.14     29.07    -31.89     24.00
    8.7632     25.05     29.08    -32.00     24.00
    8.7733     25.02     29.10    -32.04     24.00
    8.7835     25.72     29.11    -31.35     24.00
    8.7937     25.11     29.12    -31.97     24.00
    8.8038     25.73     29.14    -31.37     24.00
    8.8140     25.23     29.15    -31.88     24.00
    8.8242     25.03     29.16    -32.09     24.00
    8.8343     25.95     29.18    -31.19     24.00
    8.8445     26.33     29.19    -30.82     24.00
    8.8546     25.51     29.20    -31.65     24.00
    8.8648     25.72     29.22    -31.46     24.00
    8.8750     25.96     29.23    -31.23     24.00
    8.8851     25.68     29.24    -31.53     24.00
    8.8953     25.95     29.26    -31.27     24.00
    8.9055     25.13     29.27    -32.10     24.00
    8.9156     25.41     29.28    -31.84     24.00
    8.9258     25.54     29.30    -31.72     24.00
    8.9360     25.32     29.31    -31.95     24.00
    8.9461     25.74     29.33    -31.55     24.00
    8.9563     26.46     29.34    -30.84     24.00
    8.9665     25.57     29.36    -31.75     24.00
    8.9766     26.10     29.37    -31.23     24.00
    8.9868     25.97     29.38    -31.38     24.00
    8.9969     26.23     29.40    -31.13     24.00
    9.0071     25.57     29.41    -31.80     24.00
    9.0173     26.15     29.43    -31.24     24.00
    9.0274     26.14     29.44    -31.26     24.00
    9.0376     25.92     29.46    -31.50     24.00
    9.0478     26.71     29.47    -30.72     24.00
    9.0579     27.16     29.49    -30.29     24.00
    9.0681     26.41     29.50    -31.05     24.00
    9.0783     26.74     29.52    -30.74     24.00
    9.0884     26.73     29.53    -30.76     24.00
    9.0986     26.13     29.54    -31.38     24.00
    9.1088     26.06     29.56    -31.46     24.00
    9.1189     26.71     29.58    -30.83     24.00
    9.1291     26.31     29.59    -31.24     24.00
    9.1393     26.67     29.61    -30.90     24.00
    9.1494     26.77     29.62    -30.81     24.00
    9.1596     25.77     29.64    -31.83     24.00
    9.1697     26.62     29.65    -30.99     24.00
    9.1799     27.04     29.67    -30.59     24.00
    9.1901     26.77     29.68    -30.88     24.00
    9.2002     25.83     29.70    -31.83     24.00
    9.2104     26.98     29.71    -30.70     24.00
    9.2206     26.45     29.73    -31.24     24.00
    9.2307     26.67     29.75    -31.04     24.00
    9.2409     26.04     29.76    -31.68     24.00
    9.2511     26.15     29.78    -31.59     24.00
    9.2612     27.74     29.79    -30.02     24.00
    9.2714     27.78     29.81    -29.99     24.00
    9.2816     26.76     29.83    -31.03     24.00
    9.2917     27.25     29.84    -30.56     24.00
    9.3019     27.10     29.86    -30.72     24.00
    9.3120     27.23     29.88    -30.61     24.00
    9.3222     28.32     29.89    -29.53     24.00
    9.3324     26.76     29.91    -31.11     24.00
    9.3425     27.41     29.93    -30.48     24.00
    9.3527     27.15     29.94    -30.75     24.00
    9.3629     26.62     29.96    -31.30     24.00
    9.3730     26.81     29.98    -31.13     24.00
    9.3832     27.17     29.99    -30.79     24.00
    9.3934     27.22     30.01    -30.75     24.00
    9.4035     27.26     30.03    -30.73     24.00
    9.4137     27.03     30.04    -30.98     24.00
    9.4239     27.30     30.06    -30.72     24.00
    9.4340     27.24     30.08    -30.80     24.00
    9.4442     27.05     30.10    -31.01     24.00
    9.4544     26.98     30.11    -31.10     24.00
    9.4645     27.04     30.13    -31.05     24.00
    9.4747     28.19     30.15    -29.92     24.00
    9.4848     27.85     30.17    -30.28     24.00
    9.4950     27.78     30.19    -30.37     24.00
    9.5052     27.91     30.20    -30.26     24.00
    9.5153     27.21     30.22    -30.97     24.00
    9.5255     28.05     30.24    -30.15     24.00
    9.5357     28.17     30.26    -30.05     24.00
    9.5458     28.54     30.28    -29.70     24.00
    9.5560     26.54     30.29    -31.72     24.00
    9.5662     27.24     30.31    -31.04     24.00
    9.5763     27.99     30.33    -30.30     24.00
    9.5865     28.57     30.35    -29.74     24.00
    9.5967     27.38     30.37    -30.95     24.00
    9.6068     27.96     30.39    -30.39     24.00
    9.6170     28.18     30.41    -30.19     24.00
    9.6271     28.91     30.43    -29.48     24.00
    9.6373     28.48     30.44    -29.93     24.00
    9.6475     27.14     30.46    -31.29     24.00
    9.6576     29.18     30.48    -29.26     24.00
    9.6678     28.80     30.50    -29.66     24.00
    9.6780     27.58     30.52    -30.90     24.00
    9.6881     28.90     30.54    -29.60     24.00
    9.6983     29.28     30.56    -29.24     24.00
    9.7085     28.60     30.58    -29.94     24.00
    9.7186     28.21     30.60    -30.35     24.00
    9.7288     27.98     30.62    -30.60     24.00
    9.7390     27.88     30.64    -30.72     24.00
    9.7491     29.15     30.66    -29.47     24.00
    9.7593     28.13     30.68    -30.51     24.00
    9.7694     28.91     30.70    -29.75     24.00
    9.7796     28.00     30.72    -30.68     24.00
    9.7898     29.23     30.74    -29.47     24.00
    9.7999     28.59     30.76    -30.13     24.00
    9.8101     28.91     30.78    -29.83     24.00
    9.8203     29.55     30.80    -29.21     24.00
    9.8304     28.34     30.82    -30.44     24.00
    9.8406     29.07     30.84    -29.74     24.00
    9.8508     28.55     30.86    -30.28     24.00
    9.8609     28.87     30.89    -29.98     24.00
    9.8711     28.93     30.91    -29.94     24.00
    9.8813     28.71     30.93    -30.18     24.00
    9.8914     28.74     30.95    -30.17     24.00
    9.9016     28.72     30.97    -30.21     24.00
    9.9118     29.47     30.99    -29.48     24.00
    9.9219     29.40     31.01    -29.58     24.00
    9.9321     29.64     31.04    -29.36     24.00
    9.9422     29.90     31.06    -29.12     24.00
    9.9524     28.91     31.08    -30.13     24.00
    9.9626     29.01     31.10    -30.05     24.00
    9.9727     29.56     31.12    -29.52     24.00
    9.9829     29.29     31.14    -29.82     24.00
    9.9931     29.63     31.17    -29.50     24.00
   10.0032     29.76     31.19    -29.39     24.00
   10.0134     29.96     31.21    -29.21     24.00
   10.0236     30.29     31.23    -28.91     24.00
   10.0337     29.54     31.26    -29.68     24.00
   10.0439     28.79     31.28    -30.45     24.00
   10.0541     28.95     31.30    -30.31     24.00
   10.0642     29.77     31.33    -29.52     24.00
   10.0744     29.48     31.35    -29.83     24.00
   10.0845     29.44     31.37    -29.89     24.00
   10.0947     29.48     31.40    -29.88     24.00
   10.1049     30.07     31.42    -29.31     24.00
   10.1150     30.55     31.44    -28.85     24.00
   10.1252     30.12     31.47    -29.31     24.00
   10.1354     28.99     31.49    -30.46     24.00
   10.1455     29.62     31.51    -29.86     24.00
   10.1557     29.55     31.54    -29.95     24.00
   10.1659     29.81     31.56    -29.71     24.00
   10.1760     30.56     31.59    -28.99     24.00
   10.1862     31.09     31.61    -28.48     24.00
   10.1964     29.93     31.63    -29.67     24.00
   10.2065     30.27     31.66    -29.35     24.00
   10.2167     30.24     31.68    -29.40     24.00
   10.2269     30.09     31.71    -29.58     24.00
   10.2370     30.40     31.73    -29.29     24.00
   10.2472     31.04     31.76    -28.68     24.00
   10.2573     30.93     31.78    -28.81     24.00
   10.2675     29.71     31.81    -30.06     24.00
   10.2777     30.75     31.83    -29.04     24.00
   10.2878     30.71     31.86    -29.11     24.00
   10.2980     30.84     31.88    -29.01     24.00
   10.3082     30.98     31.91    -28.89     24.00
   10.3183     30.35     31.93    -29.55     24.00
   10.3285     31.49     31.96    -28.43     24.00
   10.3387     30.26     31.99    -29.69     24.00
   10.3488     30.73     32.01    -29.24     24.00
   10.3590     31.29     32.04    -28.71     24.00
   10.3692     30.42     32.06    -29.61     24.00
   10.3793     29.93     32.09    -30.12     24.00
   10.3895     30.86     32.12    -29.22     24.00
   10.3996     30.62     32.14    -29.49     24.00
   10.4098     30.98     32.17    -29.15     24.00
   10.4200     30.65     32.20    -29.51     24.00
   10.4301     31.19     32.22    -29.00     24.00
   10.4403     31.77     32.25    -28.44     24.00
   10.4505     31.10     32.28    -29.14     24.00
   10.4606     31.24     32.31    -29.03     24.00
   10.4708     31.32     32.33    -28.98     24.00
   10.4810     31.63     32.36    -28.69     24.00
   10.4911     30.98     32.39    -29.37     24.00
   10.5013     30.89     32.42    -29.49     24.00
   10.5115     32.30     32.44    -28.11     24.00
   10.5216     31.32     32.47    -29.11     24.00
   10.5318     31.68     32.50    -28.78     24.00
   10.5420     31.32     32.53    -29.17     24.00
   10.5521     30.95     32.56    -29.57     24.00
   10.5623     31.33     32.59    -29.22     24.00
   10.5724     31.79     32.61    -28.79     24.00
   10.5826     31.83     32.64    -28.77     24.00
   10.5928     32.04     32.67    -28.59     24.00
   10.6029     32.38     32.70    -28.28     24.00
   10.6131     31.38     32.73    -29.31     24.00
   10.6233     32.38     32.76    -28.34     24.00
   10.6334     31.45     32.79    -29.30     24.00
   10.6436     32.14     32.82    -28.64     24.00
   10.6538     31.95     32.85    -28.86     24.00
   10.6639     31.47     32.88    -29.37     24.00
   10.6741     31.45     32.91    -29.42     24.00
   10.6843     31.97     32.94    -28.93     24.00
   10.6944     32.29     32.97    -28.64     24.00
   10.7046     32.77     33.00    -28.19     24.00
   10.7147     32.32     33.03    -28.67     24.00
   10.7249     31.91     33.06    -29.11     24.00
   10.7351     31.82     33.09    -29.23     24.00
   10.7452     32.22     33.12    -28.86     24.00
   10.7554     32.50     33.15    -28.61     24.00
   10.7656     31.98     33.18    -29.16     24.00
   10.7757     32.97     33.21    -28.21     24.00
   10.7859     32.55     33.24    -28.66     24.00
   10.7961     32.67     33.28    -28.57     24.00
   10.8062     32.34     33.31    -28.93     24.00
   10.8164     32.71     33.34    -28.59     24.00
   10.8266     31.83     33.37    -29.50     24.00
   10.8367     32.42     33.40    -28.95     24.00
   10.8469     32.74     33.44    -28.66     24.00
   10.8571     32.30     33.47    -29.13     24.00
   10.8672     33.50     33.50    -27.96     24.00
   10.8774     32.56     33.53    -28.94     24.00
   10.8875     33.02     33.57    -28.51     24.00
   10.8977     32.97     33.60    -28.59     24.00
   10.9079     32.82     33.63    -28.77     24.00
   10.9180     33.71     33.66    -27.92     24.00
   10.9282     32.59     33.70    -29.07     24.00
   10.9384     32.88     33.73    -28.81     24.00
   10.9485     33.42     33.77    -28.31     24.00
   10.9587     33.74     33.80    -28.02     24.00
   10.9689     33.98     33.83    -27.81     24.00
   10.9790     32.98     33.87    -28.85     24.00
   10.9892     33.31     33.90    -28.55     24.00
   10.9994     33.43     33.94    -28.47     24.00
   11.0095     33.32     33.97    -28.61     24.00
   11.0197     34.07     34.00    -27.90     24.00
   11.0298     32.82     34.04    -29.18     24.00
   11.0400     33.40     34.07    -28.64     24.00
   11.0502     33.96     34.11    -28.11     24.00
   11.0603     32.76     34.14    -29.35     24.00
   11.0705     33.95     34.18    -28.19     24.00
   11.0807     34.30     34.22    -27.88     24.00
   11.0908     32.91     34.25    -29.30     24.00
   11.1010     34.58     34.29    -27.67     24.00
   11.1112     33.81     34.32    -28.47     24.00
   11.1213     34.10     34.36    -28.22     24.00
   11.1315     34.43     34.39    -27.93     24.00
   11.1417     33.80     34.43    -28.59     24.00
   11.1518     33.96     34.47    -28.47     24.00
   11.1620     35.07     34.50    -27.40     24.00
   11.1722     34.37     34.54    -28.13     24.00
   11.1823     34.18     34.58    -28.36     24.00
   11.1925     34.91     34.62    -27.67     24.00
   11.2026     34.15     34.65    -28.46     24.00
   11.2128     34.69     34.69    -27.96     24.00
   11.2230     34.10     34.73    -28.59     24.00
   11.2331     33.92     34.76    -28.81     24.00
   11.2433     34.20     34.80    -28.57     24.00
   11.2535     35.03     34.84    -27.77     24.00
   11.2636     34.12     34.88    -28.72     24.00
   11.2738     34.46     34.92    -28.42     24.00
   11.2840     34.45     34.96    -28.47     24.00
   11.2941     35.25     34.99    -27.71     24.00
   11.3043     35.48     35.03    -27.52     24.00
   11.3145     34.86     35.07    -28.18     24.00
   11.3246     34.88     35.11    -28.19     24.00
   11.3348     34.48     35.15    -28.63     24.00
   11.3449     34.06     35.19    -29.09     24.00
   11.3551     35.77     35.23    -27.42     24.00
   11.3653     35.91     35.27    -27.32     24.00
   11.3754     35.18     35.31    -28.09     24.00
   11.3856     36.01     35.35    -27.30     24.00
   11.3958     35.58     35.39    -27.77     24.00
   11.4059     35.90     35.43    -27.49     24.00
   11.4161     35.29     35.47    -28.14     24.00
   11.4263     34.93     35.51    -28.55     24.00
   11.4364     36.10     35.55    -27.42     24.00
   11.4466     35.50     35.60    -28.06     24.00
   11.4568     34.99     35.64    -28.61     24.00
   11.4669     35.13     35.68    -28.51     24.00
   11.4771     35.38     35.72    -28.30     24.00
   11.4873     35.73     35.76    -27.99     24.00
   11.4974     36.32     35.80    -27.45     24.00
   11.5076     35.88     35.85    -27.93     24.00
   11.5177     35.24     35.89    -28.61     24.00
   11.5279     35.76     35.93    -28.13     24.00
   11.5381     37.09     35.97    -26.85     24.00
   11.5482     35.73     36.02    -28.25     24.00
   11.5584     35.21     36.06    -28.81     24.00
   11.5686     35.80     36.10    -28.26     24.00
   11.5787     37.02     36.15    -27.09     24.00
   11.5889     36.41     36.19    -27.74     24.00
   11.5991     36.32     36.23    -27.88     24.00
   11.6092     36.37     36.28    -27.87     24.00
   11.6194     35.84     36.32    -28.44     24.00
   11.6296     36.01     36.37    -28.32     24.00
   11.6397     36.41     36.41    -27.96     24.00
   11.6499     36.40     36.45    -28.02     24.00
   11.6600     37.21     36.50    -27.25     24.00
   11.6702     36.91     36.54    -27.60     24.00
   11.6804     37.37     36.59    -27.18     24.00
   11.6905     36.07     36.63    -28.53     24.00
   11.7007     36.46     36.68    -28.18     24.00
   11.7109     36.82     36.73    -27.87     24.00
   11.7210     38.03     36.77    -26.70     24.00
   11.7312     37.73     36.82    -27.05     24.00
   11.7414     37.29     36.86    -27.54     24.00
   11.7515     37.04     36.91    -27.83     24.00
   11.7617     38.21     36.96    -26.71     24.00
   11.7719     38.18     37.00    -26.79     24.00
   11.7820     37.05     37.05    -27.96     24.00
   11.7922     39.05     37.10    -26.01     24.00
   11.8023     37.43     37.14    -27.68     24.00
   11.8125     38.34     37.19    -26.81     24.00
   11.8227     38.00     37.24    -27.20     24.00
   11.8328     36.98     37.29    -28.27     24.00
   11.8430     37.60     37.34    -27.70     24.00
   11.8532     37.35     37.38    -28.00     24.00
   11.8633     38.17     37.43    -27.22     24.00
   11.8735     37.24     37.48    -28.20     24.00
   11.8837     38.66     37.53    -26.83     24.00
   11.8938     37.74     37.58    -27.80     24.00
   11.9040     38.01     37.63    -27.58     24.00
   11.9142     38.14     37.68    -27.50     24.00
   11.9243     38.04     37.73    -27.65     24.00
   11.9345     37.39     37.78    -28.35     24.00
   11.9447     37.60     37.83    -28.19     24.00
   11.9548     38.51     37.88    -27.33     24.00
   11.9650     38.81     37.93    -27.08     24.00
   11.9751     37.40     37.98    -28.54     24.00
   11.9853     38.15     38.03    -27.84     24.00
   11.9955     38.87     38.08    -27.17     24.00
   12.0056     38.03     38.13    -28.06     24.00
   12.0158     38.57     38.18    -27.57     24.00
   12.0260     38.36     38.23    -27.84     24.00
   12.0361     38.38     38.29    -27.87     24.00
   12.0463     38.99     38.34    -27.31     24.00
   12.0565     39.79     38.39    -26.56     24.00
   12.0666     38.73     38.44    -27.67     24.00
   12.0768     39.13     38.49    -27.33     24.00
   12.0870     39.30     38.55    -27.21     24.00
   12.0971     39.13     38.60    -27.43     24.00
   12.1073     39.32     38.65    -27.30     24.00
   12.1174     38.87     38.71    -27.80     24.00
   12.1276     39.48     38.76    -27.24     24.00
   12.1378     38.24     38.81    -28.54     24.00
   12.1479     39.34     38.87    -27.49     24.00
   12.1581     39.97     38.92    -26.91     24.00
   12.1683     39.95     38.98    -26.99     24.00
   12.1784     40.30     39.03    -26.69     24.00
   12.1886     39.88     39.09    -27.17     24.00
   12.1988     40.48     39.14    -26.62     24.00
   12.2089     39.74     39.20    -27.42     24.00
   12.2191     40.34     39.25    -26.87     24.00
   12.2293     40.67     39.31    -26.60     24.00
   12.2394     40.66     39.36    -26.66     24.00
   12.2496     40.76     39.42    -26.62     24.00
   12.2598     40.34     39.48    -27.10     24.00
   12.2699     41.18     39.53    -26.31     24.00
   12.2801     41.33     39.59    -26.22     24.00
   12.2902     40.23     39.64    -27.38     24.00
   12.3004     39.77     39.70    -27.89     24.00
   12.3106     40.90     39.76    -26.82     24.00
   12.3207     40.99     39.82    -26.79     24.00
   12.3309     40.91     39.87    -26.93     24.00
   12.3411     41.66     39.93    -26.23     24.00
   12.3512     40.12     39.99    -27.83     24.00
   12.3614     42.08     40.05    -25.93     24.00
   12.3716     41.43     40.11    -26.64     24.00
   12.3817     40.30     40.17    -27.83     24.00
   12.3919     41.95     40.22    -26.24     24.00
   12.4021     41.18     40.28    -27.07     24.00
   12.4122     41.41     40.34    -26.89     24.00
   12.4224     41.96     40.40    -26.40     24.00
   12.4325     40.81     40.46    -27.61     24.00
   12.4427     41.47     40.52    -27.01     24.00
   12.4529     42.27     40.58    -26.27     24.00
   12.4630     41.96     40.64    -26.65     24.00
   12.4732     41.38     40.70    -27.29     24.00
   12.4834     41.76     40.77    -26.97     24.00
   12.4935     41.94     40.83    -26.85     24.00
   12.5037     41.88     40.89    -26.97     24.00
   12.5139     42.32     40.95    -26.59     24.00
   12.5240     41.23     41.01    -27.74     24.00
   12.5342     41.42     41.07    -27.61     24.00
   12.5444     42.59     41.14    -26.51     24.00
   12.5545     42.30     41.20    -26.86     24.00
   12.5647     43.42     41.26    -25.80     24.00
   12.5749     42.85     41.32    -26.44     24.00
   12.5850     42.89     41.39    -26.46     24.00
   12.5952     42.44     41.45    -26.97     24.00
   12.6053     42.61     41.51    -26.86     24.00
   12.6155     42.49     41.58    -27.05     24.00
   12.6257     41.84     41.64    -27.76     24.00
   12.6358     42.47     41.71    -27.20     24.00
   12.6460     43.85     41.77    -25.88     24.00
   12.6562     42.38     41.83    -27.42     24.00
   12.6663     43.35     41.90    -26.51     24.00
   12.6765     42.75     41.96    -27.18     24.00
   12.6867     43.15     42.03    -26.84     24.00
   12.6968     44.29     42.10    -25.77     24.00
   12.7070     43.17     42.16    -26.95     24.00
   12.7172     43.01     42.23    -27.18     24.00
   12.7273     42.71     42.29    -27.55     24.00
   12.7375     43.38     42.36    -26.94     24.00
   12.7476     43.90     42.43    -26.49     24.00
   12.7578     42.77     42.49    -27.69     24.00
   12.7680     44.12     42.56    -26.40     24.00
   12.7781     43.46     42.63    -27.13     24.00
   12.7883     44.03     42.70    -26.63     24.00
   12.7985     44.04     42.77    -26.69     24.00
   12.8086     44.07     42.83    -26.73     24.00
   12.8188     43.30     42.90    -27.56     24.00
   12.8290     45.44     42.97    -25.49     24.00
   12.8391     45.16     43.04    -25.84     24.00
   12.8493     45.09     43.11    -25.98     24.00
   12.8595     44.68     43.18    -26.46     24.00
   12.8696     44.16     43.25    -27.05     24.00
   12.8798     45.12     43.32    -26.16     24.00
   12.8900     44.52     43.39    -26.83     24.00
   12.9001     44.66     43.46    -26.76     24.00
   12.9103     45.12     43.53    -26.37     24.00
   12.9204     45.14     43.60    -26.42     24.00
   12.9306     44.87     43.67    -26.76     24.00
   12.9408     45.65     43.74    -26.06     24.00
   12.9509     45.49     43.81    -26.29     24.00
   12.9611     46.15     43.89    -25.70     24.00
   12.9713     45.88     43.96    -26.04     24.00
   12.9814     45.64     44.03    -26.35     24.00
   12.9916     45.63     44.10    -26.44     24.00
   13.0018     45.63     44.18    -26.51     24.00
   13.0119     46.88     44.25    -25.33     24.00
   13.0221     46.12     44.32    -26.17     24.00
   13.0323     46.10     44.40    -26.26     24.00
   13.0424     46.54     44.47    -25.89     24.00
   13.0526     46.26     44.55    -26.25     24.00
   13.0627     46.47     44.62    -26.11     24.00
   13.0729     47.04     44.69    -25.62     24.00
   13.0831     46.66     44.77    -26.07     24.00
   13.0932     45.12     44.84    -27.69     24.00
   13.1034     47.11     44.92    -25.77     24.00
   13.1136     47.13     45.00    -25.83     24.00
   13.1237     47.29     45.07    -25.74     24.00
   13.1339     47.41     45.15    -25.70     24.00
   13.1441     47.19     45.23    -26.00     24.00
   13.1542     45.46     45.30    -27.80     24.00
   13.1644     46.93     45.38    -26.41     24.00
   13.1746     47.75     45.46    -25.67     24.00
   13.1847     47.00     45.53    -26.50     24.00
   13.1949     47.87     45.61    -25.70     24.00
   13.2051     48.40     45.69    -25.25     24.00
   13.2152     47.76     45.77    -25.97     24.00
   13.2254     48.15     45.85    -25.66     24.00
   13.2355     47.27     45.93    -26.62     24.00
   13.2457     49.08     46.01    -24.89     24.00
   13.2559     47.37     46.08    -26.68     24.00
   13.2660     48.54     46.16    -25.59     24.00
   13.2762     49.23     46.24    -24.98     24.00
   13.2864     47.77     46.33    -26.52     24.00
   13.2965     48.38     46.41    -25.99     24.00
   13.3067     47.55     46.49    -26.90     24.00
   13.3169     48.60     46.57    -25.93     24.00
   13.3270     49.68     46.65    -24.93     24.00
   13.3372     47.66     46.73    -27.03     24.00
   13.3474     49.20     46.81    -25.57     24.00
   13.3575     49.99     46.89    -24.87     24.00
   13.3677     48.18     46.98    -26.76     24.00
   13.3778     50.07     47.06    -24.95     24.00
   13.3880     49.76     47.14    -25.35     24.00
   13.3982     49.84     47.23    -25.35     24.00
   13.4083     49.60     47.31    -25.67     24.00
   13.4185     49.49     47.39    -25.87     24.00
   13.4287     50.36     47.48    -25.08     24.00
   13.4388     50.38     47.56    -25.15     24.00
   13.4490     49.26     47.65    -26.35     24.00
   13.4592     50.32     47.73    -25.38     24.00
   13.4693     50.57     47.82    -25.21     24.00
   13.4795     50.71     47.91    -25.16     24.00
   13.4897     50.85     47.99    -25.10     24.00
   13.4998     51.41     48.08    -24.63     24.00
   13.5100     50.48     48.16    -25.65     24.00
   13.5201     50.80     48.25    -25.41     24.00
   13.5303     51.06     48.34    -25.24     24.00
   13.5405     50.92     48.43    -25.47     24.00
   13.5506     51.10     48.51    -25.38     24.00
   13.5608     50.59     48.60    -25.97     24.00
   13.5710     52.30     48.69    -24.35     24.00
   13.5811     51.41     48.78    -25.33     24.00
   13.5913     50.91     48.87    -25.92     24.00
   13.6015     51.89     48.96    -25.03     24.00
   13.6116     51.45     49.05    -25.56     24.00
   13.6218     52.00     49.14    -25.10     24.00
   13.6320     51.31     49.23    -25.88     24.00
   13.6421     52.63     49.32    -24.65     24.00
   13.6523     52.20     49.41    -25.17     24.00
   13.6625     52.52     49.50    -24.94     24.00
   13.6726     52.34     49.59    -25.22     24.00
   13.6828     53.20     49.69    -24.45     24.00
   13.6929     52.12     49.78    -25.62     24.00
   13.7031     52.49     49.87    -25.34     24.00
   13.7133     53.14     49.96    -24.79     24.00
   13.7234     51.91     50.06    -26.11     24.00
   13.7336     53.04     50.15    -25.07     24.00
   13.7438     53.15     50.25    -25.06     24.00
   13.7539     53.16     50.34    -25.14     24.00
   13.7641     53.20     50.44    -25.20     24.00
   13.7743     54.19     50.53    -24.30     24.00
   13.7844     53.45     50.63    -25.14     24.00
   13.7946     54.07     50.72    -24.61     24.00
   13.8048     54.43     50.82    -24.35     24.00
   13.8149     52.96     50.91    -25.92     24.00
   13.8251     54.50     51.01    -24.47     24.00
   13.8352     54.67     51.11    -24.40     24.00
   13.8454     53.91     51.21    -25.26     24.00
   13.8556     55.40     51.31    -23.87     24.00
   13.8657     54.72     51.40    -24.64     24.00
   13.8759     55.06     51.50    -24.40     24.00
   13.8861     54.83     51.60    -24.73     24.00
   13.8962     55.10     51.70    -24.56     24.00
   13.9064     55.09     51.80    -24.67     24.00
   13.9166     53.99     51.90    -25.87     24.00
   13.9267     56.34     52.00    -23.62     24.00
   13.9369     54.73     52.10    -25.34     24.00
   13.9471     55.95     52.21    -24.22     24.00
   13.9572     55.71     52.31    -24.56     24.00
   13.9674     55.59     52.41    -24.78     24.00
   13.9776     55.48     52.51    -24.99     24.00
   13.9877     56.26     52.61    -24.32     24.00
   13.9979     54.70     52.72    -25.98     24.00
   14.0080     56.29     52.82    -24.49     24.00
   14.0182     56.05     52.93    -24.84     24.00
   14.0284     56.39     53.03    -24.60     24.00
   14.0385     55.52     53.14    -25.58     24.00
   14.0487     57.49     53.24    -23.71     24.00
   14.0589     57.12     53.35    -24.19     24.00
   14.0690     56.71     53.45    -24.71     24.00
   14.0792     56.11     53.56    -25.41     24.00
   14.0894     57.02     53.67    -24.61     24.00
   14.0995     56.35     53.78    -25.39     24.00
   14.1097     57.10     53.89    -24.75     24.00
   14.1199     57.34     53.99    -24.62     24.00
   14.1300     57.96     54.10    -24.10     24.00
   14.1402     58.80     54.21    -23.37     24.00
   14.1503     57.41     54.32    -24.87     24.00
   14.1605     58.46     54.43    -23.93     24.00
   14.1707     58.07     54.54    -24.44     24.00
   14.1808     58.41     54.65    -24.21     24.00
   14.1910     57.84     54.77    -24.89     24.00
   14.2012     59.50     54.88    -23.34     24.00
   14.2113     58.40     54.99    -24.55     24.00
   14.2215     60.10     55.11    -22.97     24.00
   14.2317     58.85     55.22    -24.33     24.00
   14.2418     59.04     55.33    -24.26     24.00
   14.2520     59.98     55.45    -23.43     24.00
   14.2622     58.83     55.56    -24.70     24.00
   14.2723     59.64     55.68    -24.00     24.00
   14.2825     59.43     55.80    -24.33     24.00
   14.2927     59.29     55.91    -24.59     24.00
   14.3028     60.11     56.03    -23.88     24.00
   14.3130     60.38     56.15    -23.73     24.00
   14.3231     60.50     56.27    -23.73     24.00
   14.3333     59.80     56.39    -24.55     24.00
   14.3435     61.24     56.51    -23.23     24.00
   14.3536     60.95     56.63    -23.64     24.00
   14.3638     60.48     56.75    -24.23     24.00
   14.3740     60.98     56.87    -23.85     24.00
   14.3841     60.18     56.99    -24.77     24.00
   14.3943     60.98     57.11    -24.09     24.00
   14.4045     60.93     57.23    -24.27     24.00
   14.4146     61.32     57.36    -24.00     24.00
   14.4248     61.91     57.48    -23.53     24.00
   14.4350     62.78     57.61    -22.79     24.00
   14.4451     61.09     57.73    -24.60     24.00
   14.4553     61.23     57.86    -24.59     24.00
   14.4654     61.38     57.98    -24.56     24.00
   14.4756     61.76     58.11    -24.31     24.00
   14.4858     61.87     58.24    -24.33     24.00
   14.4959     62.84     58.37    -23.49     24.00
   14.5061     63.16     58.49    -23.30     24.00
   14.5163     63.96     58.62    -22.63     24.00
   14.5264     62.41     58.75    -24.31     24.00
   14.5366     61.65     58.89    -25.20     24.00
   14.5468     63.06     59.02    -23.92     24.00
   14.5569     62.76     59.15    -24.35     24.00
   14.5671     62.63     59.28    -24.61     24.00
   14.5773     64.20     59.41    -23.18     24.00
   14.5874     64.03     59.55    -23.48     24.00
   14.5976     64.45     59.68    -23.19     24.00
   14.6078     63.73     59.82    -24.05     24.00
   14.6179     65.26     59.95    -22.66     24.00
   14.6281     64.07     60.09    -23.98     24.00
   14.6382     65.55     60.23    -22.64     24.00
   14.6484     64.09     60.37    -24.24     24.00
   14.6586     63.84     60.50    -24.63     24.00
   14.6687     64.96     60.64    -23.65     24.00
   14.6789     65.27     60.78    -23.48     24.00
   14.6891     65.54     60.93    -23.35     24.00
   14.6992     64.57     61.07    -24.46     24.00
   14.7094     66.06     61.21    -23.11     24.00
   14.7196     65.32     61.35    -23.99     24.00
   14.7297     65.87     61.50    -23.59     24.00
   14.7399     65.64     61.64    -23.96     24.00
   14.7501     65.49     61.79    -24.26     24.00
   14.7602     66.29     61.93    -23.60     24.00
   14.7704     65.98     62.08    -24.06     24.00
   14.7805     65.93     62.23    -24.26     24.00
   14.7907     66.48     62.37    -23.86     24.00
   14.8009     66.57     62.52    -23.92     24.00
   14.8110     67.70     62.67    -22.94     24.00
   14.8212     67.96     62.82    -22.83     24.00
   14.8314     67.12     62.98    -23.82     24.00
   14.8415     68.41     63.13    -22.68     24.00
   14.8517     66.90     63.28    -24.34     24.00
   14.8619     69.48     63.44    -21.92     24.00
   14.8720     66.12     63.59    -25.43     24.00
   14.8822     68.16     63.75    -23.55     24.00
   14.8924     68.59     63.90    -23.28     24.00
   14.9025     68.82     64.06    -23.20     24.00
   14.9127     70.25     64.22    -21.93     24.00
   14.9229     70.13     64.38    -22.21     24.00
   14.9330     69.07     64.54    -23.43     24.00
   14.9432     69.60     64.70    -23.06     24.00
   14.9533     69.65     64.86    -23.17     24.00
   14.9635     69.32     65.02    -23.67     24.00
   14.9737     70.43     65.19    -22.72     24.00
   14.9838     69.13     65.35    -24.18     24.00
   14.9940     69.49     65.52    -23.99     24.00
   15.0042     69.88     65.68    -23.77     24.00
   15.0143     69.90     65.85    -23.91     24.00
   15.0245     71.44     66.02    -22.54     24.00
   15.0347     69.75     66.19    -24.40     24.00
   15.0448     71.03     66.36    -23.29     24.00
   15.0550     70.82     66.53    -23.67     24.00
   15.0652     70.79     66.70    -23.87     24.00
   15.0753     70.20     66.87    -24.63     24.00
   15.0855     71.95     67.05    -23.06     24.00
   15.0956     71.79     67.22    -23.39     24.00
   15.1058     72.23     67.40    -23.13     24.00
   15.1160     72.52     67.57    -23.02     24.00
   15.1261     73.07     67.75    -22.64     24.00
   15.1363     72.89     67.93    -23.00     24.00
   15.1465     72.88     68.11    -23.19     24.00
   15.1566     72.34     68.29    -23.91     24.00
   15.1668     72.20     68.47    -24.24     24.00
   15.1770     73.44     68.66    -23.18     24.00
   15.1871     73.60     68.84    -23.20     24.00
   15.1973     73.30     69.02    -23.69     24.00
   15.2075     73.18     69.21    -23.99     24.00
   15.2176     73.07     69.40    -24.29     24.00
   15.2278     73.42     69.59    -24.13     24.00
   15.2380     73.47     69.77    -24.27     24.00
   15.2481     74.31     69.96    -23.62     24.00
   15.2583     75.62     70.16    -22.50     24.00
   15.2684     74.73     70.35    -23.58     24.00
   15.2786     73.90     70.54    -24.60     24.00
   15.2888     74.60     70.74    -24.10     24.00
   15.2989     75.69     70.93    -23.20     24.00
   15.3091     75.18     71.13    -23.91     24.00
   15.3193     73.45     71.32    -25.84     24.00
   15.3294     76.60     71.52    -22.88     24.00
   15.3396     76.13     71.72    -23.55     24.00
   15.3498     76.93     71.92    -22.96     24.00
   15.3599     76.60     72.12    -23.49     24.00
   15.3701     76.80     72.33    -23.49     24.00
   15.3803     76.51     72.53    -23.99     24.00
   15.3904     75.91     72.74    -24.79     24.00
   15.4006     76.19     72.94    -24.72     24.00
   15.4107     77.71     73.15    -23.40     24.00
   15.4209     76.88     73.36    -24.44     24.00
   15.4311     77.47     73.57    -24.06     24.00
   15.4412     77.42     73.78    -24.32     24.00
   15.4514     78.25     73.99    -23.70     24.00
   15.4616     77.21     74.21    -24.96     24.00
   15.4717     78.45     74.42    -23.93     24.00
   15.4819     79.24     74.64    -23.36     24.00
   15.4921     77.51     74.85    -25.30     24.00
   15.5022     77.84     75.07    -25.19     24.00
   15.5124     79.38     75.29    -23.87     24.00
   15.5226     77.47     75.51    -26.00     24.00
   15.5327     79.53     75.73    -24.16     24.00
   15.5429     78.22     75.95    -25.69     24.00
   15.5530     80.74     76.17    -23.40     24.00
   15.5632     79.62     76.40    -24.74     24.00
   15.5734     79.11     76.63    -25.48     24.00
   15.5835     79.63     76.85    -25.18     24.00
   15.5937     80.18     77.08    -24.86     24.00
   15.6039     80.05     77.31    -25.22     24.00
   15.6140     80.26     77.54    -25.24     24.00
   15.6242     81.57     77.77    -24.16     24.00
   15.6344     81.07     78.00    -24.90     24.00
   15.6445     82.01     78.24    -24.19     24.00
   15.6547     81.05     78.47    -25.38     24.00
   15.6649     81.78     78.71    -24.89     24.00
   15.6750     81.59     78.95    -25.32     24.00
   15.6852     81.12     79.18    -26.03     24.00
   15.6954     80.79     79.42    -26.60     24.00
   15.7055     82.23     79.66    -25.40     24.00
   15.7157     81.49     79.91    -26.38     24.00
   15.7258     81.20     80.15    -26.91     24.00
   15.7360     84.01     80.39    -24.34     24.00
   15.7462     82.96     80.64    -25.64     24.00
   15.7563     84.13     80.88    -24.72     24.00
   15.7665     85.56     81.13    -23.53     24.00
   15.7767     83.60     81.38    -25.74     24.00
   15.7868     85.01     81.63    -24.58     24.00
   15.7970     84.24     81.88    -25.60     24.00
   15.8072     84.95     82.13    -25.15     24.00
   15.8173     83.74     82.39    -26.61     24.00
   15.8275     84.79     82.64    -25.81     24.00
   15.8377     85.85     82.90    -25.01     24.00
   15.8478     87.30     83.15    -23.81     24.00
   15.8580     85.51     83.41    -25.86     24.00
   15.8681     85.90     83.67    -25.73     24.00
   15.8783     84.33     83.93    -27.56     24.00
   15.8885     86.24     84.19    -25.91     24.00
   15.8986     86.70     84.45    -25.71     24.00
   15.9088     87.02     84.71    -25.66     24.00
   15.9190     87.10     84.98    -25.84     24.00
   15.9291     87.37     85.24    -25.83     24.00
   15.9393     87.15     85.51    -26.32     24.00
   15.9495     87.09     85.78    -26.65     24.00
   15.9596     87.65     86.04    -26.36     24.00
   15.9698     86.34     86.31    -27.94     24.00
   15.9800     86.45     86.59    -28.10     24.00
   15.9901     88.15     86.86    -26.67     24.00
   16.0003     88.12     87.13    -26.97     24.00
   16.0105     88.85     87.40    -26.51     24.00
   16.0206     88.76     87.68    -26.88     24.00
   16.0308     89.18     87.95    -26.73     24.00
   16.0409     88.84     88.23    -27.35     24.00
   16.0511     89.30     88.50    -27.17     24.00
   16.0613     89.91     88.78    -26.84     24.00
   16.0714     89.34     89.06    -27.68     24.00
   16.0816     88.93     89.34    -28.37     24.00
   16.0918     91.13     89.62    -26.45     24.00
   16.1019     90.10     89.90    -27.76     24.00
   16.1121     90.69     90.19    -27.46     24.00
   16.1223     90.18     90.47    -28.25     24.00
   16.1324     92.68     90.75    -26.04     24.00
   16.1426     91.68     91.04    -27.32     24.00
   16.1528     91.43     91.33    -27.86     24.00
   16.1629     91.93     91.61    -27.64     24.00
   16.1731     92.24     91.90    -27.62     24.00
   16.1832     90.53     92.19    -29.62     24.00
   16.1934     91.59     92.48    -28.85     24.00
   16.2036     93.62     92.77    -27.11     24.00
   16.2137     93.23     93.06    -27.79     24.00
   16.2239     93.71     93.35    -27.60     24.00
   16.2341     91.92     93.64    -29.69     24.00
   16.2442     93.06     93.93    -28.84     24.00
   16.2544     94.15     94.23    -28.04     24.00
   16.2646     94.05     94.52    -28.44     24.00
   16.2747     92.89     94.82    -29.89     24.00
   16.2849     95.21     95.11    -27.87     24.00
   16.2951     95.33     95.41    -28.04     24.00
   16.3052     95.01     95.71    -28.66     24.00
   16.3154     95.82     96.00    -28.15     24.00
   16.3256     96.24     96.30    -28.03     24.00
   16.3357     94.09     96.60    -30.47     24.00
   16.3459     97.20     96.90    -27.66     24.00
   16.3560     98.60     97.20    -26.56     24.00
   16.3662     97.18     97.50    -28.28     24.00
   16.3764     96.12     97.80    -29.64     24.00
   16.3865     97.25     98.10    -28.81     24.00
   16.3967     96.23     98.40    -30.13     24.00
   16.4069     96.99     98.71    -29.68     24.00
   16.4170     99.36     99.01    -27.61     24.00
   16.4272     98.62     99.31    -28.65     24.00
   16.4374     98.69     99.61    -28.89     24.00
   16.4475     98.74     99.92    -29.14     24.00
   16.4577     98.77    100.22    -29.41     24.00
   16.4679     98.23    100.53    -30.26     24.00
   16.4780    101.35    100.83    -27.44     24.00
   16.4882     99.78    101.13    -29.32     24.00
   16.4983    100.10    101.44    -29.30     24.00
   16.5085    101.00    101.74    -28.70     24.00
   16.5187     99.55    102.05    -30.46     24.00
   16.5288    102.37    102.35    -27.94     24.00
   16.5390     99.35    102.66    -31.27     24.00
   16.5492    100.63    102.96    -30.30     24.00
   16.5593    102.18    103.27    -29.05     24.00
   16.5695    100.98    103.57    -30.56     24.00
   16.5797    101.52    103.88    -30.32     24.00
   16.5898    100.52    104.19    -31.63     24.00
   16.6000    102.59    104.49    -29.86     24.00
   16.6102    103.79    104.80    -28.97     24.00
   16.6203    102.38    105.10    -30.68     24.00
   16.6305    103.10    105.41    -30.27     24.00
   16.6407    103.62    105.72    -30.06     24.00
   16.6508    103.44    106.02    -30.54     24.00
   16.6610    103.71    106.33    -30.58     24.00
   16.6711    103.12    106.63    -31.47     24.00
   16.6813    103.15    106.93    -31.75     24.00
   16.6915    103.44    107.24    -31.76     24.00
   16.7016    105.87    107.54    -29.63     24.00
   16.7118    104.86    107.85    -30.95     24.00
   16.7220    105.39    108.15    -30.72     24.00
   16.7321    104.21    108.45    -32.20     24.00
   16.7423    105.72    108.76    -31.00     24.00
   16.7525    105.30    109.06    -31.72     24.00
   16.7626    105.91    109.36    -31.41     24.00
   16.7728    106.30    109.66    -31.32     24.00
   16.7830    108.03    109.96    -29.90     24.00
   16.7931    106.98    110.26    -31.24     24.00
   16.8033    106.49    110.56    -32.04     24.00
   16.8134    106.91    110.86    -31.91     24.00
   16.8236    106.27    111.16    -32.85     24.00
   16.8338    105.74    111.46    -33.68     24.00
   16.8439    108.09    111.76    -31.63     24.00
   16.8541    108.82    112.05    -31.19     24.00
   16.8643    108.34    112.35    -31.97     24.00
   16.8744    108.40    112.64    -32.21     24.00
   16.8846    109.76    112.94    -31.14     24.00
   16.8948    109.48    113.23    -31.72     24.00
   16.9049    108.93    113.52    -32.56     24.00
   16.9151    109.94    113.82    -31.84     24.00
   16.9253    110.36    114.11    -31.71     24.00
   16.9354    109.96    114.40    -32.40     24.00
   16.9456    109.87    114.69    -32.78     24.00
   16.9558    109.96    114.98    -32.98     24.00
   16.9659    110.63    115.26    -32.60     24.00
   16.9761    109.91    115.55    -33.60     24.00
   16.9862    110.35    115.84    -33.45     24.00
   16.9964    112.32    116.12    -31.76     24.00
   17.0066    110.09    116.41    -34.28     24.00
   17.0167    112.71    116.69    -31.94     24.00
   17.0269    112.38    116.97    -32.55     24.00
   17.0371    111.37    117.25    -33.84     24.00
   17.0472    113.76    117.53    -31.73     24.00
   17.0574    113.24    117.81    -32.53     24.00
   17.0676    111.79    118.09    -34.26     24.00
   17.0777    112.13    118.36    -34.19     24.00
   17.0879    114.46    118.64    -32.14     24.00
   17.0981    112.45    118.91    -34.42     24.00
   17.1082    114.04    119.18    -33.10     24.00
   17.1184    113.80    119.45    -33.62     24.00
   17.1285    113.90    119.72    -33.79     24.00
   17.1387    113.84    119.99    -34.12     24.00
   17.1489    115.57    120.26    -32.66     24.00
   17.1590    114.15    120.53    -34.34     24.00
   17.1692    114.01    120.80    -34.75     24.00
   17.1794    116.55    121.07    -32.48     24.00
   17.1895    115.55    121.33    -33.74     24.00
   17.1997    114.74    121.59    -34.82     24.00
   17.2099    116.22    121.86    -33.60     24.00
   17.2200    115.69    122.12    -34.39     24.00
   17.2302    116.22    122.38    -34.12     24.00
   17.2404    118.12    122.65    -32.49     24.00
   17.2505    117.42    122.90    -33.45     24.00
   17.2607    115.93    123.17    -35.20     24.00
   17.2709    118.38    123.43    -33.01     24.00
   17.2810    118.85    123.69    -32.80     24.00
   17.2912    118.15    123.95    -33.76     24.00
   17.3013    120.01    124.21    -32.16     24.00
   17.3115    117.87    124.47    -34.56     24.00
   17.3217    118.88    124.73    -33.81     24.00
   17.3318    119.90    124.99    -33.05     24.00
   17.3420    119.35    125.26    -33.87     24.00
   17.3522    121.12    125.52    -32.36     24.00
   17.3623    120.60    125.78    -33.15     24.00
   17.3725    120.09    126.05    -33.92     24.00
   17.3827    121.10    126.32    -33.18     24.00
   17.3928    121.05    126.59    -33.50     24.00
   17.4030    121.74    126.86    -33.09     24.00
   17.4132    123.04    127.14    -32.06     24.00
   17.4233    122.43    127.42    -32.95     24.00
   17.4335    122.45    127.70    -33.21     24.00
   17.4436    122.20    127.98    -33.75     24.00
   17.4538    124.99    128.28    -31.25     24.00
   17.4640    123.95    128.57    -32.58     24.00
   17.4741    124.24    128.87    -32.59     24.00
   17.4843    126.74    129.18    -30.40     24.00
   17.4945    126.16    129.49    -31.29     24.00
   17.5046    125.31    129.80    -32.46     24.00
   17.5148    126.99    130.13    -31.10     24.00
   17.5250    126.95    130.46    -31.48     24.00
   17.5351    127.63    130.80    -31.14     24.00
   17.5453    129.63    131.16    -29.49     24.00
   17.5555    126.82    131.52    -32.66     24.00
   17.5656    127.13    131.89    -32.72     24.00
   17.5758    128.13    132.27    -32.10     24.00
   17.5859    127.38    132.66    -33.24     24.00
   17.5961    130.12    133.07    -30.91     24.00
   17.6063    130.75    133.49    -30.70     24.00
   17.6164    131.20    133.92    -30.69     24.00
   17.6266    130.76    134.38    -31.58     24.00
   17.6368    132.17    134.84    -30.64     24.00
   17.6469    131.81    135.33    -31.48     24.00
   17.6571    130.73    135.83    -33.06     24.00
   17.6673    135.02    136.35    -29.30     24.00
   17.6774    135.00    136.89    -29.85     24.00
   17.6876    137.12    137.46    -28.30     24.00
   17.6978    135.29    138.05    -30.72     24.00
   17.7079    136.37    138.65    -30.24     24.00
   17.7181    136.75    139.29    -30.50     24.00
   17.7283    139.40    139.95    -28.51     24.00
   17.7384    140.42    140.63    -28.17     24.00
   17.7486    138.55    141.35    -30.76     24.00
   17.7587    140.59    142.09    -29.46     24.00
   17.7689    138.98    142.86    -31.85     24.00
   17.7791    139.76    143.67    -31.87     24.00
   17.7892    141.66    144.50    -30.80     24.00
   17.7994    142.75    145.38    -30.59     24.00
   17.8096    145.06    146.28    -29.19     24.00
   17.8197    144.91    147.22    -30.27     24.00
   17.8299    145.01    148.20    -31.15     24.00
   17.8401    148.35    149.21    -28.83     24.00
   17.8502    149.24    150.26    -28.98     24.00
   17.8604    148.15    151.36    -31.17     24.00
   17.8706    149.67    152.49    -30.78     24.00
   17.8807    151.06    153.66    -30.56     24.00
   17.8909    151.00    154.87    -31.84     24.00
   17.9010    151.63    156.12    -32.45     24.00
   17.9112    157.28    157.43    -28.11     24.00
   17.9214    155.31    158.77    -31.42     24.00
   17.9315    156.98    160.15    -31.13     24.00
   17.9417    161.48    161.58    -28.07     24.00
   17.9519    160.72    163.06    -30.31     24.00
   17.9620    160.20    164.57    -32.33     24.00
   17.9722    164.71    166.14    -29.39     24.00
   17.9824    164.18    167.75    -31.54     24.00
   17.9925    167.87    169.40    -29.49     24.00
   18.0027    168.79    171.10    -30.27     24.00
   18.0129    168.21    172.84    -32.59     24.00
   18.0230    169.70    174.61    -32.87     24.00
   18.0332    173.92    176.44    -30.48     24.00
   18.0434    173.15    178.31    -33.12     24.00
   18.0535    175.77    180.20    -32.40     24.00
   18.0637    178.71    182.15    -31.40     24.00
   18.0738    179.34    184.12    -32.74     24.00
   18.0840    180.74    186.14    -33.37     24.00
   18.0942    187.12    188.20    -29.04     24.00
   18.1043    184.40    190.27    -33.83     24.00
   18.1145    186.21    192.39    -34.14     24.00
   18.1247    190.82    194.54    -31.68     24.00
   18.1348    192.63    196.69    -32.03     24.00
   18.1450    194.24    198.89    -32.61     24.00
   18.1552    198.29    201.11    -30.78     24.00
   18.1653    198.63    203.33    -32.66     24.00
   18.1755    200.65    205.58    -32.89     24.00
   18.1857    205.32    207.84    -30.48     24.00
   18.1958    206.30    210.08    -31.75     24.00
   18.2060    207.85    212.36    -32.47     24.00
   18.2161    211.30    214.61    -31.27     24.00
   18.2263    213.47    216.88    -31.37     24.00
   18.2365    214.27    219.14    -32.83     24.00
   18.2466    219.74    221.36    -29.58     24.00
   18.2568    219.55    223.59    -32.00     24.00
   18.2670    221.66    225.80    -32.10     24.00
   18.2771    226.03    227.95    -29.88     24.00
   18.2873    227.05    230.10    -31.01     24.00
   18.2975    225.43    232.20    -34.73     24.00
   18.3076    233.04    234.24    -29.17     24.00
   18.3178    233.24    236.25    -30.98     24.00
   18.3280    236.82    238.21    -29.35     24.00
   18.3381    237.94    240.08    -30.10     24.00
   18.3483    241.18    241.91    -28.69     24.00
   18.3585    241.28    243.66    -30.34     24.00
   18.3686    246.12    245.31    -27.15     24.00
   18.3788    246.02    246.89    -28.83     24.00
   18.3889    246.02    248.37    -30.31     24.00
   18.3991    249.82    249.76    -27.90     24.00
   18.4093    248.49    251.05    -30.52     24.00
   18.4194    250.24    252.22    -29.94     24.00
   18.4296    253.87    253.28    -27.37     24.00
   18.4398    253.76    254.22    -28.43     24.00
   18.4499    253.30    255.04    -29.70     24.00
   18.4601    256.70    255.73    -26.99     24.00
   18.4703    256.71    256.29    -27.54     24.00
   18.4804    255.05    256.71    -29.62     24.00
   18.4906    256.93    257.00    -28.03     24.00
   18.5008    256.25    257.16    -28.87     24.00
   18.5109    253.25    257.17    -31.88     24.00
   18.5211    255.16    257.05    -29.85     24.00
   18.5312    253.82    256.78    -30.93     24.00
   18.5414    251.30    256.38    -33.05     24.00
   18.5516    254.34    255.85    -29.47     24.00
   18.5617    252.43    255.18    -30.72     24.00
   18.5719    249.05    254.38    -33.29     24.00
   18.5821    250.43    253.45    -30.99     24.00
   18.5922    247.95    252.41    -32.43     24.00
   18.6024    246.13    251.24    -33.08     24.00
   18.6126    244.87    249.96    -33.05     24.00
   18.6227    242.45    248.58    -34.09     24.00
   18.6329    240.91    247.09    -34.14     24.00
   18.6431    239.75    245.49    -33.71     24.00
   18.6532    237.36    243.83    -34.43     24.00
   18.6634    234.75    242.06    -35.27     24.00
   18.6736    234.48    240.21    -33.69     24.00
   18.6837    232.49    238.31    -33.78     24.00
   18.6939    228.08    236.32    -36.21     24.00
   18.7040    226.99    234.30    -35.27     24.00
   18.7142    225.60    232.20    -34.56     24.00
   18.7244    224.17    230.05    -33.84     24.00
   18.7345    219.04    227.88    -36.80     24.00
   18.7447    217.86    225.65    -35.75     24.00
   18.7549    214.49    223.39    -36.86     24.00
   18.7650    210.68    221.13    -38.41     24.00
   18.7752    210.59    218.83    -36.20     24.00
   18.7854    208.40    216.50    -36.07     24.00
   18.7955    207.16    214.20    -35.00     24.00
   18.8057    205.69    211.86    -34.13     24.00
   18.8159    201.71    209.52    -35.77     24.00
   18.8260    200.53    207.21    -34.64     24.00
   18.8362    197.03    204.88    -35.81     24.00
   18.8463    193.12    202.59    -37.43     24.00
   18.8565    192.05    200.28    -36.19     24.00
   18.8667    190.85    198.00    -35.11     24.00
   18.8768    189.33    195.75    -34.39     24.00
   18.8870    189.60    193.51    -31.88     24.00
   18.8972    185.99    191.30    -33.27     24.00
   18.9073    182.66    189.14    -34.44     24.00
   18.9175    183.85    186.98    -31.10     24.00
   18.9277    182.34    184.87    -30.49     24.00
   18.9378    179.51    182.81    -31.26     24.00
   18.9480    177.54    180.76    -31.18     24.00
   18.9582    175.55    178.76    -31.17     24.00
   18.9683    173.90    176.82    -30.88     24.00
   18.9785    175.16    174.90    -27.70     24.00
   18.9887    172.55    173.03    -28.44     24.00
   18.9988    170.05    171.22    -29.13     24.00
   19.0090    168.67    169.44    -28.73     24.00
   19.0191    169.79    167.72    -25.89     24.00
   19.0293    165.86    166.03    -28.13     24.00
   19.0395    166.94    164.40    -25.42     24.00
   19.0496    164.43    162.82    -26.36     24.00
   19.0598    164.29    161.28    -24.96     24.00
   19.0700    161.51    159.80    -26.25     24.00
   19.0801    159.58    158.37    -26.75     24.00
   19.0903    157.90    156.98    -27.04     24.00
   19.1005    161.05    155.64    -22.55     24.00
   19.1106    160.31    154.36    -22.02     24.00
   19.1208    157.49    153.12    -23.59     24.00
   19.1310    156.17    151.93    -23.72     24.00
   19.1411    156.85    150.79    -21.90     24.00
   19.1513    152.35    149.69    -25.31     24.00
   19.1614    153.32    148.65    -23.30     24.00
   19.1716    156.29    147.65    -19.32     24.00
   19.1818    151.99    146.69    -22.66     24.00
   19.1919    151.75    145.78    -21.99     24.00
   19.2021    151.37    144.91    -21.50     24.00
   19.2123    149.56    144.08    -22.48     24.00
   19.2224    149.08    143.30    -22.18     24.00
   19.2326    149.24    142.55    -21.27     24.00
   19.2428    145.35    141.84    -24.45     24.00
   19.2529    147.69    141.18    -21.45     24.00
   19.2631    147.43    140.54    -21.08     24.00
   19.2733    145.54    139.95    -22.37     24.00
   19.2834    146.61    139.39    -20.74     24.00
   19.2936    144.67    138.87    -22.16     24.00
   19.3038    143.98    138.37    -22.36     24.00
   19.3139    147.07    137.92    -18.81     24.00
   19.3241    143.54    137.49    -21.91     24.00
   19.3342    141.85    137.09    -23.20     24.00
   19.3444    143.77    136.72    -20.91     24.00
   19.3546    142.76    136.38    -21.58     24.00
   19.3647    141.95    136.06    -22.07     24.00
   19.3749    140.51    135.77    -23.22     24.00
   19.3851    140.58    135.51    -22.89     24.00
   19.3952    140.45    135.27    -22.78     24.00
   19.4054    140.18    135.05    -22.83     24.00
   19.4156    139.83    134.85    -22.98     24.00
   19.4257    140.57    134.67    -22.07     24.00
   19.4359    138.79    134.52    -23.69     24.00
   19.4461    141.37    134.38    -20.97     24.00
   19.4562    139.54    134.26    -22.69     24.00
   19.4664    139.90    134.16    -22.22     24.00
   19.4765    139.39    134.08    -22.65     24.00
   19.4867    137.96    134.01    -24.01     24.00
   19.4969    140.60    133.96    -21.32     24.00
   19.5070    137.98    133.92    -23.90     24.00
   19.5172    136.96    133.89    -24.89     24.00
   19.5274    136.59    133.88    -25.25     24.00
   19.5375    135.66    133.88    -26.18     24.00
   19.5477    134.85    133.89    -27.00     24.00
   19.5579    136.40    133.91    -25.48     24.00
   19.5680    136.82    133.95    -25.09     24.00
   19.5782    135.51    133.99    -26.44     24.00
   19.5884    136.65    134.05    -25.36     24.00
   19.5985    136.18    134.11    -25.89     24.00
   19.6087    135.34    134.18    -26.80     24.00
   19.6188    135.40    134.26    -26.82     24.00
   19.6290    135.29    134.34    -27.02     24.00
   19.6392    133.97    134.44    -28.43     24.00
   19.6493    135.81    134.54    -26.69     24.00
   19.6595    136.70    134.64    -25.90     24.00
   19.6697    135.65    134.75    -27.07     24.00
   19.6798    136.07    134.87    -26.76     24.00
   19.6900    135.19    134.99    -27.77     24.00
   19.7002    135.72    135.12    -27.36     24.00
   19.7103    134.32    135.25    -28.89     24.00
   19.7205    136.04    135.39    -27.31     24.00
   19.7307    135.07    135.53    -28.42     24.00
   19.7408    133.76    135.67    -29.87     24.00
   19.7510    135.90    135.81    -27.87     24.00
   19.7612    135.18    135.96    -28.74     24.00
   19.7713    133.80    136.11    -30.27     24.00
   19.7815    133.90    136.26    -30.32     24.00
   19.7916    134.18    136.41    -30.19     24.00
   19.8018    134.64    136.57    -29.89     24.00
   19.8120    135.46    136.72    -29.23     24.00
   19.8221    133.59    136.88    -31.25     24.00
   19.8323    136.55    137.03    -28.45     24.00
   19.8425    136.75    137.19    -28.40     24.00
   19.8526    134.49    137.35    -30.82     24.00
   19.8628    135.26    137.50    -30.20     24.00
   19.8730    135.26    137.66    -30.36     24.00
   19.8831    134.68    137.81    -31.09     24.00
   19.8933    135.73    137.96    -30.19     24.00
   19.9035    134.59    138.11    -31.49     24.00
   19.9136    136.22    138.26    -30.00     24.00
   19.9238    134.62    138.41    -31.75     24.00
   19.9339    137.62    138.55    -28.89     24.00
   19.9441    136.12    138.69    -30.53     24.00
   19.9543    137.80    138.83    -28.99     24.00
   19.9644    135.52    138.96    -31.41     24.00
   19.9746    137.38    139.09    -29.68     24.00
   19.9848    137.51    139.22    -29.67     24.00
   19.9949    137.12    139.34    -30.18     24.00
   20.0051    137.01    139.46    -30.41     24.00
   20.0153    137.49    139.57    -30.05     24.00
   20.0254    138.57    139.68    -29.07     24.00
   20.0356    137.79    139.78    -29.96     24.00
   20.0458    138.49    139.88    -29.35     24.00
   20.0559    137.68    139.97    -30.25     24.00
   20.0661    138.46    140.06    -29.56     24.00
   20.0763    140.43    140.13    -27.67     24.00
   20.0864    136.11    140.21    -32.06     24.00
   20.0966    137.37    140.27    -30.86     24.00
   20.1067    140.83    140.33    -27.46     24.00
   20.1169    138.92    140.38    -29.42     24.00
   20.1271    138.57    140.42    -29.81     24.00
   20.1372    138.04    140.46    -30.38     24.00
   20.1474    140.63    140.48    -27.81     24.00
   20.1576    140.88    140.50    -27.58     24.00
   20.1677    140.04    140.51    -28.44     24.00
   20.1779    141.45    140.52    -27.03     24.00
   20.1881    138.79    140.51    -29.68     24.00
   20.1982    139.50    140.50    -28.96     24.00
   20.2084    140.20    140.47    -28.23     24.00
   20.2186    138.59    140.44    -29.81     24.00
   20.2287    142.78    140.40    -25.58     24.00
   20.2389    141.62    140.35    -26.69     24.00
   20.2490    140.45    140.29    -27.80     24.00
   20.2592    141.16    140.22    -27.03     24.00
   20.2694    142.42    140.15    -25.69     24.00
   20.2795    141.20    140.06    -26.82     24.00
   20.2897    142.43    139.97    -25.50     24.00
   20.2999    141.87    139.86    -25.95     24.00
   20.3100    140.84    139.75    -26.87     24.00
   20.3202    143.61    139.63    -23.98     24.00
   20.3304    142.90    139.50    -24.56     24.00
   20.3405    141.92    139.36    -25.40     24.00
   20.3507    143.18    139.21    -24.00     24.00
   20.3609    142.58    139.06    -24.44     24.00
   20.3710    142.51    138.90    -24.35     24.00
   20.3812    144.87    138.72    -21.82     24.00
   20.3914    143.09    138.54    -23.42     24.00
   20.4015    141.04    138.36    -25.28     24.00
   20.4117    142.41    138.16    -23.71     24.00
   20.4218    143.62    137.96    -22.30     24.00
   20.4320    141.09    137.75    -24.62     24.00
   20.4422    140.01    137.53    -25.49     24.00
   20.4523    141.48    137.31    -23.79     24.00
   20.4625    141.74    137.08    -23.30     24.00
   20.4727    141.85    136.85    -22.96     24.00
   20.4828    142.23    136.61    -22.34     24.00
   20.4930    138.85    136.36    -25.47     24.00
   20.5032    141.62    136.10    -22.45     24.00
   20.5133    141.57    135.85    -22.24     24.00
   20.5235    138.29    135.58    -25.26     24.00
   20.5337    140.88    135.32    -22.40     24.00
   20.5438    138.74    135.04    -24.27     24.00
   20.5540    137.29    134.77    -25.44     24.00
   20.5641    141.04    134.49    -21.41     24.00
   20.5743    139.36    134.20    -22.81     24.00
   20.5845    138.48    133.91    -23.40     24.00
   20.5946    140.87    133.63    -20.72     24.00
   20.6048    138.68    133.33    -22.61     24.00
   20.6150    135.75    133.03    -25.25     24.00
   20.6251    138.43    132.74    -22.27     24.00
   20.6353    136.74    132.43    -23.66     24.00
   20.6455    135.16    132.13    -24.93     24.00
   20.6556    136.37    131.83    -23.42     24.00
   20.6658    135.74    131.52    -23.74     24.00
   20.6760    135.47    131.21    -23.70     24.00
   20.6861    134.49    130.91    -24.38     24.00
   20.6963    135.63    130.60    -22.93     24.00
   20.7065    133.32    130.29    -24.93     24.00
   20.7166    134.20    129.98    -23.74     24.00
   20.7268    131.50    129.67    -26.13     24.00
   20.7369    131.69    129.36    -25.63     24.00
   20.7471    131.21    129.05    -25.80     24.00
   20.7573    130.63    128.74    -26.07     24.00
   20.7674    129.52    128.44    -26.88     24.00
   20.7776    130.31    128.13    -25.78     24.00
   20.7878    129.39    127.82    -26.39     24.00
   20.7979    129.03    127.52    -26.45     24.00
   20.8081    129.13    127.22    -26.05     24.00
   20.8183    127.93    126.92    -26.95     24.00
   20.8284    128.87    126.62    -25.72     24.00
   20.8386    127.06    126.33    -27.23     24.00
   20.8488    127.11    126.04    -26.89     24.00
   20.8589    125.46    125.75    -28.25     24.00
   20.8691    126.72    125.46    -26.70     24.00
   20.8792    126.55    125.18    -26.59     24.00
   20.8894    126.22    124.90    -26.64     24.00
   20.8996    127.33    124.63    -25.26     24.00
   20.9097    125.05    124.36    -27.27     24.00
   20.9199    124.32    124.09    -27.73     24.00
   20.9301    124.95    123.83    -26.84     24.00
   20.9402    124.77    123.57    -26.76     24.00
   20.9504    123.65    123.31    -27.63     24.00
   20.9606    123.94    123.07    -27.09     24.00
   20.9707    122.68    122.82    -28.11     24.00
   20.9809    121.29    122.59    -29.26     24.00
   20.9911    123.77    122.35    -26.54     24.00
   21.0012    121.51    122.13    -28.58     24.00
   21.0114    121.49    121.91    -28.38     24.00
   21.0216    121.84    121.69    -27.81     24.00
   21.0317    120.75    121.48    -28.70     24.00
   21.0419    120.61    121.28    -28.63     24.00
   21.0520    120.43    121.09    -28.62     24.00
   21.0622    120.45    120.90    -28.41     24.00
   21.0724    120.29    120.72    -28.39     24.00
   21.0825    121.55    120.55    -26.96     24.00
   21.0927    121.37    120.38    -26.97     24.00
   21.1029    118.02    120.22    -30.16     24.00
   21.1130    120.48    120.07    -27.56     24.00
   21.1232    119.36    119.93    -28.53     24.00
   21.1334    118.28    119.80    -29.48     24.00
   21.1435    116.62    119.67    -31.02     24.00
   21.1537    120.67    119.56    -26.85     24.00
   21.1639    117.94    119.45    -29.47     24.00
   21.1740    118.93    119.35    -28.39     24.00
   21.1842    120.16    119.27    -27.07     24.00
   21.1943    117.73    119.19    -29.42     24.00
   21.2045    119.66    119.12    -27.42     24.00
   21.2147    119.54    119.06    -27.48     24.00
   21.2248    117.26    119.01    -29.71     24.00
   21.2350    118.39    118.97    -28.54     24.00
   21.2452    118.83    118.94    -28.07     24.00
   21.2553    118.40    118.92    -28.49     24.00
   21.2655    118.17    118.92    -28.71     24.00
   21.2757    117.66    118.92    -29.22     24.00
   21.2858    116.21    118.94    -30.69     24.00
   21.2960    119.69    118.97    -27.24     24.00
   21.3062    120.30    119.00    -26.67     24.00
   21.3163    117.43    119.05    -29.59     24.00
   21.3265    119.51    119.12    -27.57     24.00
   21.3366    117.66    119.19    -29.49     24.00
   21.3468    119.45    119.28    -27.79     24.00
   21.3570    118.24    119.38    -29.10     24.00
   21.3671    120.08    119.49    -27.37     24.00
   21.3773    118.45    119.61    -29.12     24.00
   21.3875    120.69    119.75    -27.02     24.00
   21.3976    119.18    119.90    -28.68     24.00
   21.4078    119.98    120.06    -28.04     24.00
   21.4180    120.04    120.24    -28.16     24.00
   21.4281    118.33    120.43    -30.06     24.00
   21.4383    119.16    120.63    -29.43     24.00
   21.4485    120.79    120.85    -28.02     24.00
   21.4586    120.51    121.07    -28.53     24.00
   21.4688    119.03    121.32    -30.25     24.00
   21.4790    119.91    121.58    -29.63     24.00
   21.4891    120.11    121.84    -29.70     24.00
   21.4993    121.46    122.13    -28.63     24.00
   21.5094    122.43    122.42    -27.96     24.00
   21.5196    122.89    122.74    -27.81     24.00
   21.5298    122.09    123.06    -28.93     24.00
   21.5399    123.84    123.40    -27.52     24.00
   21.5501    122.75    123.75    -28.96     24.00
   21.5603    124.15    124.12    -27.93     24.00
   21.5704    124.52    124.50    -27.94     24.00
   21.5806    124.80    124.89    -28.05     24.00
   21.5908    123.82    125.30    -29.44     24.00
   21.6009    126.21    125.72    -27.47     24.00
   21.6111    127.48    126.15    -26.63     24.00
   21.6213    124.99    126.60    -29.57     24.00
   21.6314    127.76    127.06    -27.26     24.00
   21.6416    128.65    127.53    -26.84     24.00
   21.6517    128.65    128.01    -27.32     24.00
   21.6619    130.73    128.51    -25.74     24.00
   21.6721    131.67    129.02    -25.31     24.00
   21.6822    130.11    129.54    -27.39     24.00
   21.6924    131.77    130.07    -26.26     24.00
   21.7026    133.78    130.62    -24.80     24.00
   21.7127    131.38    131.17    -27.75     24.00
   21.7229    134.51    131.74    -25.19     24.00
   21.7331    134.08    132.31    -26.20     24.00
   21.7432    134.81    132.90    -26.05     24.00
   21.7534    135.94    133.49    -25.52     24.00
   21.7636    135.41    134.10    -26.65     24.00
   21.7737    136.00    134.71    -26.67     24.00
   21.7839    136.84    135.34    -26.46     24.00
   21.7941    137.45    135.97    -26.48     24.00
   21.8042    138.63    136.60    -25.93     24.00
   21.8144    140.43    137.25    -24.78     24.00
   21.8245    141.27    137.90    -24.59     24.00
   21.8347    138.92    138.56    -27.60     24.00
   21.8449    140.84    139.22    -26.34     24.00
   21.8550    142.16    139.88    -25.69     24.00
   21.8652    141.40    140.56    -27.12     24.00
   21.8754    144.77    141.23    -24.43     24.00
   21.8855    144.06    141.91    -25.81     24.00
   21.8957    142.86    142.59    -27.69     24.00
   21.9059    146.05    143.27    -25.18     24.00
   21.9160    146.98    143.95    -24.93     24.00
   21.9262    146.04    144.63    -26.55     24.00
   21.9364    148.52    145.31    -24.76     24.00
   21.9465    148.60    145.99    -25.35     24.00
   21.9567    146.61    146.67    -28.02     24.00
   21.9668    148.76    147.33    -26.53     24.00
   21.9770    150.34    148.00    -25.62     24.00
   21.9872    150.56    148.67    -26.07     24.00
   21.9973    151.73    149.32    -25.55     24.00
   22.0075    151.99    149.97    -25.94     24.00
   22.0177    150.23    150.61    -28.34     24.00
   22.0278    152.39    151.24    -26.81     24.00
   22.0380    154.20    151.86    -25.62     24.00
   22.0482    154.28    152.47    -26.15     24.00
   22.0583    155.34    153.06    -25.68     24.00
   22.0685    155.71    153.65    -25.90     24.00
   22.0787    154.90    154.22    -27.28     24.00
   22.0888    157.91    154.77    -24.82     24.00
   22.0990    155.68    155.30    -27.59     24.00
   22.1092    157.04    155.82    -26.75     24.00
   22.1193    160.40    156.32    -23.88     24.00
   22.1295    159.38    156.80    -25.38     24.00
   22.1396    156.10    157.26    -29.12     24.00
   22.1498    159.68    157.69    -25.98     24.00
   22.1600    159.43    158.11    -26.64     24.00
   22.1701    159.76    158.49    -26.69     24.00
   22.1803    159.24    158.86    -27.58     24.00
   22.1905    161.36    159.19    -25.79     24.00
   22.2006    156.66    159.50    -30.80     24.00
   22.2108    158.87    159.78    -28.87     24.00
   22.2210    161.62    160.03    -26.37     24.00
   22.2311    158.52    160.25    -29.69     24.00
   22.2413    161.07    160.44    -27.33     24.00
   22.2515    162.34    160.60    -26.22     24.00
   22.2616    160.44    160.73    -28.25     24.00
   22.2718    159.35    160.82    -29.43     24.00
   22.2819    162.70    160.88    -26.14     24.00
   22.2921    160.29    160.90    -28.58     24.00
   22.3023    159.48    160.90    -29.38     24.00
   22.3124    162.18    160.85    -26.64     24.00
   22.3226    159.38    160.78    -29.36     24.00
   22.3328    159.34    160.66    -29.29     24.00
   22.3429    161.09    160.52    -27.39     24.00
   22.3531    157.77    160.33    -30.53     24.00
   22.3633    157.32    160.12    -30.76     24.00
   22.3734    158.65    159.87    -29.18     24.00
   22.3836    156.54    159.58    -31.00     24.00
   22.3938    160.00    159.26    -27.22     24.00
   22.4039    156.90    158.91    -29.97     24.00
   22.4141    154.06    158.52    -32.42     24.00
   22.4243    156.98    158.10    -29.08     24.00
   22.4344    154.59    157.66    -31.03     24.00
   22.4446    153.04    157.17    -32.10     24.00
   22.4547    155.52    156.67    -29.11     24.00
   22.4649    152.18    156.12    -31.91     24.00
   22.4751    152.58    155.55    -30.94     24.00
   22.4852    151.74    154.96    -31.18     24.00
   22.4954    152.09    154.34    -30.21     24.00
   22.5056    150.27    153.69    -31.38     24.00
   22.5157    152.02    153.02    -28.96     24.00
   22.5259    150.11    152.32    -30.17     24.00
   22.5361    148.22    151.60    -31.34     24.00
   22.5462    147.58    150.86    -31.25     24.00
   22.5564    148.31    150.10    -29.75     24.00
   22.5666    145.37    149.32    -31.91     24.00
   22.5767    143.97    148.53    -32.52     24.00
   22.5869    145.17    147.71    -30.50     24.00
   22.5970    143.40    146.88    -31.45     24.00
   22.6072    144.02    146.04    -29.98     24.00
   22.6174    143.25    145.17    -29.89     24.00
   22.6275    140.87    144.31    -31.40     24.00
   22.6377    141.54    143.42    -29.84     24.00
   22.6479    140.80    142.52    -29.69     24.00
   22.6580    138.81    141.63    -30.78     24.00
   22.6682    138.44    140.71    -30.23     24.00
   22.6784    138.91    139.79    -28.84     24.00
   22.6885    136.65    138.87    -30.18     24.00
   22.6987    135.87    137.93    -30.02     24.00
   22.7089    137.71    136.99    -27.24     24.00
   22.7190    133.24    136.05    -30.77     24.00
   22.7292    133.31    135.10    -29.76     24.00
   22.7394    133.94    134.15    -28.17     24.00
   22.7495    131.49    133.21    -29.68     24.00
   22.7597    131.25    132.26    -28.97     24.00
   22.7698    130.04    131.31    -29.23     24.00
   22.7800    127.60    130.36    -30.72     24.00
   22.7902    128.82    129.41    -28.55     24.00
   22.8003    129.20    128.47    -27.23     24.00
   22.8105    125.95    127.52    -29.53     24.00
   22.8207    127.04    126.58    -27.50     24.00
   22.8308    127.40    125.65    -26.21     24.00
   22.8410    124.07    124.71    -28.60     24.00
   22.8512    123.89    123.78    -27.85     24.00
   22.8613    124.08    122.87    -26.75     24.00
   22.8715    121.17    121.95    -28.74     24.00
   22.8817    122.40    121.04    -26.60     24.00
   22.8918    121.12    120.14    -26.98     24.00
   22.9020    120.38    119.24    -26.82     24.00
   22.9121    119.82    118.36    -26.50     24.00
   22.9223    120.24    117.48    -25.20     24.00
   22.9325    118.39    116.61    -26.18     24.00
   22.9426    117.93    115.75    -25.78     24.00
   22.9528    118.41    114.90    -24.45     24.00
   22.9630    116.50    114.05    -25.51     24.00
   22.9731    116.34    113.22    -24.84     24.00
   22.9833    115.09    112.40    -25.27     24.00
   22.9935    113.80    111.58    -25.74     24.00
   23.0036    112.50    110.78    -26.25     24.00
   23.0138    114.80    109.99    -23.15     24.00
   23.0240    110.27    109.21    -26.90     24.00
   23.0341    113.02    108.44    -23.38     24.00
   23.0443    110.15    107.68    -25.49     24.00
   23.0545    108.49    106.93    -26.40     24.00
   23.0646    108.59    106.20    -25.57     24.00
   23.0748    108.26    105.47    -25.18     24.00
   23.0849    107.99    104.77    -24.74     24.00
   23.0951    106.07    104.06    -25.96     24.00
   23.1053    106.88    103.37    -24.45     24.00
   23.1154    104.83    102.70    -25.83     24.00
   23.1256    104.91    102.03    -25.08     24.00
   23.1358    106.23    101.37    -23.11     24.00
   23.1459    103.10    100.73    -25.60     24.00
   23.1561    103.81    100.10    -24.25     24.00
   23.1663    103.19     99.48    -24.25     24.00
   23.1764    102.89     98.88    -23.95     24.00
   23.1866    100.26     98.28    -25.98     24.00
   23.1968    100.81     97.69    -24.84     24.00
   23.2069    100.04     97.12    -25.04     24.00
   23.2171    101.23     96.56    -23.29     24.00
   23.2272     98.68     96.01    -25.29     24.00
   23.2374     99.92     95.47    -23.51     24.00
   23.2476     98.62     94.94    -24.28     24.00
   23.2577     97.82     94.42    -24.56     24.00
   23.2679     95.82     93.91    -26.06     24.00
   23.2781     97.74     93.41    -23.64     24.00
   23.2882     94.67     92.93    -26.22     24.00
   23.2984     95.51     92.45    -24.90     24.00
   23.3086     94.24     91.98    -25.71     24.00
   23.3187     96.06     91.53    -23.43     24.00
   23.3289     93.76     91.08    -25.28     24.00
   23.3391     93.88     90.64    -24.73     24.00
   23.3492     93.34     90.22    -24.84     24.00
   23.3594     92.66     89.80    -25.10     24.00
   23.3695     93.48     89.39    -23.87     24.00
   23.3797     92.26     88.99    -24.69     24.00
   23.3899     92.71     88.59    -23.85     24.00
   23.4000     89.82     88.21    -26.35     24.00
   23.4102     90.16     87.84    -25.64     24.00
   23.4204     90.24     87.47    -25.19     24.00
   23.4305     89.20     87.11    -25.87     24.00
   23.4407     88.93     86.76    -25.79     24.00
   23.4509     88.67     86.41    -25.70     24.00
   23.4610     89.09     86.07    -24.95     24.00
   23.4712     88.43     85.74    -25.28     24.00
   23.4814     88.71     85.42    -24.67     24.00
   23.4915     87.62     85.10    -25.45     24.00
   23.5017     86.15     84.79    -26.60     24.00
   23.5119     85.90     84.49    -26.55     24.00
   23.5220     86.74     84.19    -25.41     24.00
   23.5322     86.17     83.90    -25.69     24.00
   23.5423     85.26     83.61    -26.32     24.00
   23.5525     85.93     83.33    -25.37     24.00
   23.5627     84.09     83.06    -26.93     24.00
   23.5728     83.04     82.79    -27.71     24.00
   23.5830     83.79     82.52    -26.70     24.00
   23.5932     83.38     82.26    -26.85     24.00
   23.6033     82.67     82.01    -27.30     24.00
   23.6135     82.77     81.76    -26.95     24.00
   23.6237     82.15     81.51    -27.33     24.00
   23.6338     81.60     81.27    -27.64     24.00
   23.6440     83.07     81.04    -25.93     24.00
   23.6542     81.04     80.80    -27.72     24.00
   23.6643     81.71     80.57    -26.83     24.00
   23.6745     80.29     80.35    -28.02     24.00
   23.6846     80.21     80.13    -27.88     24.00
   23.6948     80.07     79.91    -27.80     24.00
   23.7050     79.49     79.69    -28.17     24.00
   23.7151     77.74     79.48    -29.70     24.00
   23.7253     78.04     79.27    -29.20     24.00
   23.7355     79.36     79.07    -27.67     24.00
   23.7456     78.68     78.87    -28.15     24.00
   23.7558     78.18     78.67    -28.45     24.00
   23.7660     76.46     78.47    -29.97     24.00
   23.7761     76.60     78.27    -29.64     24.00
   23.7863     77.14     78.08    -28.90     24.00
   23.7965     77.95     77.89    -27.90     24.00
   23.8066     75.84     77.70    -29.83     24.00
   23.8168     76.99     77.52    -28.49     24.00
   23.8270     76.27     77.33    -29.03     24.00
   23.8371     76.26     77.15    -28.86     24.00
   23.8473     76.13     76.97    -28.81     24.00
   23.8574     75.85     76.80    -28.91     24.00
   23.8676     75.62     76.62    -28.96     24.00
   23.8778     73.93     76.45    -30.48     24.00
   23.8879     73.97     76.28    -30.27     24.00
   23.8981     74.34     76.11    -29.73     24.00
   23.9083     73.96     75.94    -29.94     24.00
   23.9184     72.76     75.77    -30.97     24.00
   23.9286     73.64     75.60    -29.93     24.00
   23.9388     72.39     75.44    -31.01     24.00
   23.9489     74.22     75.28    -29.02     24.00
   23.9591     73.69     75.11    -29.39     24.00
   23.9693     74.19     74.95    -28.72     24.00
   23.9794     72.78     74.79    -29.98     24.00
   23.9896     73.01     74.64    -29.59     24.00
   23.9997     73.23     74.48    -29.21     24.00
   24.0099     71.90     74.32    -30.38     24.00
   24.0201     70.65     74.17    -31.48     24.00
   24.0302     71.45     74.01    -30.52     24.00
   24.0404     70.59     73.86    -31.23     24.00
   24.0506     71.83     73.71    -29.84     24.00
   24.0607     71.38     73.56    -30.14     24.00
   24.0709     70.30     73.40    -31.07     24.00
   24.0811     70.17     73.25    -31.05     24.00
   24.0912     70.11     73.11    -30.96     24.00
   24.1014     70.54     72.96    -30.38     24.00
   24.1116     69.76     72.81    -31.01     24.00
   24.1217     69.73     72.66    -30.89     24.00
   24.1319     70.42     72.52    -30.06     24.00
   24.1421     70.09     72.37    -30.24     24.00
   24.1522     69.74     72.23    -30.45     24.00
   24.1624     69.34     72.08    -30.70     24.00
   24.1725     69.51     71.94    -30.39     24.00
   24.1827     67.96     71.80    -31.80     24.00
   24.1929     68.28     71.65    -31.33     24.00
   24.2030     69.38     71.51    -30.09     24.00
   24.2132     67.94     71.37    -31.39     24.00
   24.2234     68.53     71.23    -30.66     24.00
   24.2335     67.40     71.09    -31.65     24.00
   24.2437     68.51     70.95    -30.40     24.00
   24.2539     68.47     70.81    -30.30     24.00
   24.2640     67.41     70.67    -31.22     24.00
   24.2742     67.90     70.53    -30.60     24.00
   24.2844     67.76     70.40    -30.60     24.00
   24.2945     67.49     70.26    -30.73     24.00
   24.3047     65.47     70.12    -32.61     24.00
   24.3148     67.58     69.99    -30.37     24.00
   24.3250     67.52     69.85    -30.29     24.00
   24.3352     66.30     69.71    -31.38     24.00
   24.3453     66.55     69.58    -30.99     24.00
   24.3555     67.28     69.45    -30.13     24.00
   24.3657     65.86     69.31    -31.41     24.00
   24.3758     65.63     69.18    -31.51     24.00
   24.3860     65.57     69.04    -31.44     24.00
   24.3962     66.21     68.91    -30.66     24.00
   24.4063     66.50     68.78    -30.24     24.00
   24.4165     66.48     68.65    -30.13     24.00
   24.4267     65.46     68.51    -31.02     24.00
   24.4368     65.62     68.38    -30.73     24.00
   24.4470     67.10     68.25    -29.11     24.00
   24.4572     65.30     68.12    -30.78     24.00
   24.4673     65.88     67.99    -30.07     24.00
   24.4775     64.74     67.86    -31.08     24.00
   24.4876     64.85     67.73    -30.84     24.00
   24.4978     64.37     67.60    -31.20     24.00
   24.5080     65.79     67.47    -29.65     24.00
   24.5181     63.95     67.35    -31.36     24.00
   24.5283     63.70     67.22    -31.48     24.00
   24.5385     64.37     67.09    -30.68     24.00
   24.5486     64.55     66.96    -30.38     24.00
   24.5588     62.91     66.84    -31.89     24.00
   24.5690     63.18     66.71    -31.49     24.00
   24.5791     64.12     66.58    -30.42     24.00
   24.5893     64.20     66.46    -30.22     24.00
   24.5995     63.88     66.33    -30.41     24.00
   24.6096     62.90     66.21    -31.27     24.00
   24.6198     64.16     66.08    -29.88     24.00
   24.6299     63.06     65.96    -30.86     24.00
   24.6401     62.76     65.83    -31.03     24.00
   24.6503     62.82     65.71    -30.85     24.00
   24.6604     62.16     65.58    -31.39     24.00
   24.6706     62.53     65.46    -30.89     24.00
   24.6808     63.03     65.34    -30.27     24.00
   24.6909     61.92     65.21    -31.26     24.00
   24.7011     63.35     65.09    -29.70     24.00
   24.7113     62.07     64.97    -30.86     24.00
   24.7214     63.63     64.85    -29.18     24.00
   24.7316     62.38     64.73    -30.31     24.00
   24.7418     61.45     64.60    -31.12     24.00
   24.7519     61.49     64.48    -30.96     24.00
   24.7621     61.73     64.36    -30.60     24.00
   24.7723     61.20     64.24    -31.00     24.00
   24.7824     62.23     64.12    -29.86     24.00
   24.7926     62.72     64.00    -29.25     24.00
   24.8027     62.01     63.88    -29.84     24.00
   24.8129     61.43     63.77    -30.30     24.00
   24.8231     61.85     63.65    -29.76     24.00
   24.8332     61.85     63.53    -29.64     24.00
   24.8434     61.14     63.41    -30.23     24.00
   24.8536     61.35     63.29    -29.90     24.00
   24.8637     61.29     63.18    -29.85     24.00
   24.8739     61.24     63.06    -29.78     24.00
   24.8841     61.04     62.94    -29.86     24.00
   24.8942     61.59     62.82    -29.20     24.00
   24.9044     60.99     62.71    -29.68     24.00
   24.9146     60.66     62.59    -29.89     24.00
   24.9247     59.52     62.48    -30.92     24.00
   24.9349     60.31     62.36    -30.01     24.00
   24.9450     60.90     62.25    -29.31     24.00
   24.9552     60.91     62.13    -29.18     24.00
   24.9654     60.05     62.02    -29.93     24.00
   24.9755     60.60     61.90    -29.26     24.00
   24.9857     60.83     61.79    -28.92     24.00
   24.9959     60.84     61.67    -28.80     24.00
   25.0060     58.96     61.56    -30.56     24.00
   25.0162     60.30     61.45    -29.11     24.00
   25.0264     60.45     61.34    -28.85     24.00
   25.0365     59.57     61.22    -29.62     24.00
   25.0467     60.18     61.11    -28.89     24.00
   25.0569     60.46     61.00    -28.50     24.00
   25.0670     59.87     60.89    -28.98     24.00
   25.0772     59.64     60.78    -29.10     24.00
   25.0874     59.90     60.67    -28.73     24.00
   25.0975     58.84     60.56    -29.68     24.00
   25.1077     59.16     60.45    -29.25     24.00
   25.1178     59.32     60.34    -28.98     24.00
   25.1280     59.49     60.23    -28.70     24.00
   25.1382     60.04     60.12    -28.04     24.00
   25.1483     58.45     60.01    -29.52     24.00
   25.1585     59.04     59.90    -28.82     24.00
   25.1687     58.52     59.79    -29.23     24.00
   25.1788     59.60     59.68    -28.04     24.00
   25.1890     58.93     59.57    -28.61     24.00
   25.1992     57.57     59.47    -29.86     24.00
   25.2093     57.76     59.36    -29.56     24.00
   25.2195     58.59     59.25    -28.62     24.00
   25.2297     57.22     59.14    -29.89     24.00
   25.2398     58.94     59.04    -28.06     24.00
   25.2500     59.49     58.93    -27.40     24.00
   25.2601     58.54     58.83    -28.25     24.00
   25.2703     58.92     58.72    -27.76     24.00
   25.2805     58.41     58.62    -28.17     24.00
   25.2906     58.59     58.51    -27.88     24.00
   25.3008     59.26     58.41    -27.11     24.00
   25.3110     58.05     58.30    -28.21     24.00
   25.3211     57.70     58.20    -28.46     24.00
   25.3313     57.31     58.09    -28.75     24.00
   25.3415     57.24     57.99    -28.71     24.00
   25.3516     57.62     57.89    -28.23     24.00
   25.3618     57.33     57.79    -28.42     24.00
   25.3720     56.05     57.68    -29.59     24.00
   25.3821     57.45     57.58    -28.09     24.00
   25.3923     58.65     57.48    -26.79     24.00
   25.4024     56.60     57.38    -28.74     24.00
   25.4126     57.79     57.28    -27.45     24.00
   25.4228     57.74     57.18    -27.40     24.00
   25.4329     58.43     57.08    -26.61     24.00
   25.4431     57.01     56.97    -27.93     24.00
   25.4533     56.11     56.87    -28.73     24.00
   25.4634     57.26     56.78    -27.48     24.00
   25.4736     57.46     56.68    -27.18     24.00
   25.4838     58.10     56.58    -26.44     24.00
   25.4939     57.70     56.48    -26.74     24.00
   25.5041     56.55     56.38    -27.79     24.00
   25.5143     56.29     56.28    -27.95     24.00
   25.5244     56.27     56.18    -27.88     24.00
   25.5346     57.71     56.09    -26.34     24.00
   25.5448     55.51     55.99    -28.44     24.00
   25.5549     55.74     55.89    -28.11     24.00
   25.5651     54.95     55.79    -28.81     24.00
   25.5752     56.76     55.70    -26.90     24.00
   25.5854     56.47     55.60    -27.09     24.00
   25.5956     55.16     55.51    -28.31     24.00
   25.6057     55.66     55.41    -27.71     24.00
   25.6159     54.95     55.32    -28.33     24.00
   25.6261     56.66     55.22    -26.52     24.00
   25.6362     55.81     55.13    -27.28     24.00
   25.6464     56.15     55.03    -26.85     24.00
   25.6566     56.10     54.94    -26.80     24.00
   25.6667     55.02     54.85    -27.79     24.00
   25.6769     55.18     54.75    -27.54     24.00
   25.6871     54.84     54.66    -27.78     24.00
   25.6972     54.03     54.57    -28.50     24.00
   25.7074     56.48     54.48    -25.96     24.00
   25.7175     55.73     54.39    -26.62     24.00
   25.7277     55.05     54.29    -27.21     24.00
   25.7379     54.99     54.20    -27.18     24.00
   25.7480     54.54     54.11    -27.54     24.00
   25.7582     55.35     54.02    -26.64     24.00
   25.7684     55.18     53.93    -26.71     24.00
   25.7785     54.93     53.84    -26.88     24.00
   25.7887     55.17     53.75    -26.55     24.00
   25.7989     54.38     53.67    -27.25     24.00
   25.8090     55.39     53.58    -26.15     24.00
   25.8192     54.50     53.49    -26.95     24.00
   25.8294     53.85     53.40    -27.51     24.00
   25.8395     55.60     53.31    -25.68     24.00
   25.8497     54.64     53.23    -26.55     24.00
   25.8599     54.99     53.14    -26.11     24.00
   25.8700     53.23     53.05    -27.79     24.00
   25.8802     54.34     52.97    -26.59     24.00
   25.8903     53.72     52.88    -27.13     24.00
   25.9005     54.83     52.80    -25.93     24.00
   25.9107     54.27     52.71    -26.41     24.00
   25.9208     53.14     52.63    -27.45     24.00
   25.9310     55.28     52.55    -25.23     24.00
   25.9412     54.43     52.46    -25.99     24.00
   25.9513     54.79     52.38    -25.55     24.00
   25.9615     53.70     52.30    -26.56     24.00
   25.9717     54.16     52.21    -26.02     24.00
   25.9818     53.75     52.13    -26.34     24.00
   25.9920     54.70     52.05    -25.31     24.00
   26.0022     53.68     51.97    -26.25     24.00
   26.0123     54.01     51.89    -25.84     24.00
   26.0225     55.01     51.81    -24.76     24.00
   26.0326     54.55     51.73    -25.14     24.00
   26.0428     53.65     51.65    -25.96     24.00
   26.0530     53.93     51.57    -25.60     24.00
   26.0631     54.09     51.49    -25.37     24.00
   26.0733     52.63     51.42    -26.75     24.00
   26.0835     54.37     51.34    -24.93     24.00
   26.0936     53.10     51.26    -26.12     24.00
   26.1038     52.90     51.19    -26.25     24.00
   26.1140     53.32     51.11    -25.75     24.00
   26.1241     52.63     51.04    -26.37     24.00
   26.1343     52.73     50.96    -26.19     24.00
   26.1445     53.13     50.89    -25.72     24.00
   26.1546     52.76     50.81    -26.01     24.00
   26.1648     52.93     50.74    -25.77     24.00
   26.1750     53.46     50.67    -25.17     24.00
   26.1851     52.83     50.60    -25.73     24.00
   26.1953     52.87     50.52    -25.62     24.00
   26.2054     52.01     50.45    -26.41     24.00
   26.2156     52.20     50.38    -26.14     24.00
   26.2258     52.46     50.31    -25.82     24.00
   26.2359     53.02     50.24    -25.19     24.00
   26.2461     52.66     50.18    -25.48     24.00
   26.2563     53.26     50.11    -24.81     24.00
   26.2664     52.47     50.04    -25.53     24.00
   26.2766     52.49     49.97    -25.45     24.00
   26.2868     53.60     49.91    -24.27     24.00
   26.2969     52.88     49.84    -24.93     24.00
   26.3071     52.71     49.78    -25.03     24.00
   26.3173     52.40     49.72    -25.28     24.00
   26.3274     52.64     49.65    -24.98     24.00
   26.3376     52.43     49.59    -25.12     24.00
   26.3477     52.52     49.53    -24.97     24.00
   26.3579     52.26     49.47    -25.17     24.00
   26.3681     53.23     49.41    -24.14     24.00
   26.3782     52.21     49.35    -25.10     24.00
   26.3884     50.96     49.29    -26.29     24.00
   26.3986     52.06     49.24    -25.14     24.00
   26.4087     51.27     49.18    -25.87     24.00
   26.4189     51.17     49.12    -25.92     24.00
   26.4291     51.87     49.07    -25.16     24.00
   26.4392     51.63     49.02    -25.35     24.00
   26.4494     51.38     48.96    -25.54     24.00
   26.4596     51.50     48.91    -25.37     24.00
   26.4697     52.24     48.86    -24.58     24.00
   26.4799     51.62     48.81    -25.15     24.00
   26.4901     52.24     48.76    -24.48     24.00
   26.5002     51.98     48.71    -24.70     24.00
   26.5104     51.55     48.67    -25.08     24.00
   26.5205     51.46     48.62    -25.12     24.00
   26.5307     51.90     48.58    -24.64     24.00
   26.5409     50.71     48.53    -25.79     24.00
   26.5510     51.01     48.49    -25.44     24.00
   26.5612     49.34     48.45    -27.07     24.00
   26.5714     51.15     48.41    -25.22     24.00
   26.5815     51.45     48.37    -24.88     24.00
   26.5917     51.57     48.33    -24.73     24.00
   26.6019     52.70     48.30    -23.56     24.00
   26.6120     51.40     48.26    -24.83     24.00
   26.6222     51.95     48.23    -24.24     24.00
   26.6324     51.54     48.20    -24.62     24.00
   26.6425     50.37     48.17    -25.76     24.00
   26.6527     51.45     48.14    -24.65     24.00
   26.6628     50.68     48.11    -25.39     24.00
   26.6730     51.60     48.09    -24.45     24.00
   26.6832     50.36     48.06    -25.66     24.00
   26.6933     51.09     48.04    -24.91     24.00
   26.7035     51.35     48.02    -24.63     24.00
   26.7137     50.93     48.00    -25.03     24.00
   26.7238     50.85     47.98    -25.09     24.00
   26.7340     50.52     47.96    -25.40     24.00
   26.7442     50.61     47.95    -25.30     24.00
   26.7543     51.15     47.93    -24.74     24.00
   26.7645     50.96     47.92    -24.92     24.00
   26.7747     51.44     47.91    -24.43     24.00
   26.7848     50.07     47.90    -25.80     24.00
   26.7950     51.01     47.90    -24.85     24.00
   26.8052     50.54     47.89    -25.32     24.00
   26.8153     51.10     47.89    -24.75     24.00
   26.8255     50.53     47.89    -25.32     24.00
   26.8356     50.62     47.89    -25.23     24.00
   26.8458     50.20     47.90    -25.66     24.00
   26.8560     50.96     47.90    -24.90     24.00
   26.8661     51.38     47.91    -24.49     24.00
   26.8763     50.37     47.92    -25.51     24.00
   26.8865     50.31     47.93    -25.58     24.00
   26.8966     49.55     47.95    -26.36     24.00
   26.9068     49.98     47.96    -25.94     24.00
   26.9170     51.23     47.98    -24.71     24.00
   26.9271     50.52     48.00    -25.44     24.00
   26.9373     50.28     48.03    -25.71     24.00
   26.9475     49.76     48.05    -26.25     24.00
   26.9576     50.63     48.08    -25.41     24.00
   26.9678     50.77     48.11    -25.30     24.00
   26.9779     49.94     48.14    -26.16     24.00
   26.9881     50.70     48.18    -25.44     24.00
   26.9983     50.37     48.21    -25.81     24.00
   27.0084     50.73     48.25    -25.49     24.00
   27.0186     49.51     48.30    -26.75     24.00
   27.0288     50.62     48.34    -25.68     24.00
   27.0389     50.23     48.39    -26.12     24.00
   27.0491     49.51     48.44    -26.89     24.00
   27.0593     50.00     48.49    -26.46     24.00
   27.0694     50.90     48.55    -25.61     24.00
   27.0796     50.34     48.61    -26.23     24.00
   27.0898     50.51     48.67    -26.12     24.00
   27.0999     50.60     48.73    -26.09     24.00
   27.1101     50.20     48.80    -26.56     24.00
   27.1202     50.88     48.87    -25.95     24.00
   27.1304     49.34     48.94    -27.56     24.00
   27.1406     50.28     49.02    -26.70     24.00
   27.1507     50.34     49.09    -26.72     24.00
   27.1609     49.85     49.17    -27.29     24.00
   27.1711     49.91     49.26    -27.31     24.00
   27.1812     50.34     49.34    -26.97     24.00
   27.1914     51.01     49.43    -26.38     24.00
   27.2016     50.45     49.52    -27.04     24.00
   27.2117     50.99     49.62    -26.59     24.00
   27.2219     50.32     49.72    -27.36     24.00
   27.2321     50.10     49.82    -27.68     24.00
   27.2422     51.21     49.92    -26.67     24.00
   27.2524     50.12     50.03    -27.87     24.00
   27.2626     51.25     50.14    -26.85     24.00
   27.2727     49.99     50.25    -28.22     24.00
   27.2829     50.65     50.36    -27.68     24.00
   27.2930     51.01     50.48    -27.43     24.00
   27.3032     49.95     50.60    -28.61     24.00
   27.3134     50.65     50.72    -28.04     24.00
   27.3235     50.97     50.85    -27.84     24.00
   27.3337     50.33     50.98    -28.61     24.00
   27.3439     50.63     51.11    -28.44     24.00
   27.3540     50.93     51.25    -28.28     24.00
   27.3642     50.15     51.38    -29.20     24.00
   27.3744     51.18     51.52    -28.31     24.00
   27.3845     51.10     51.67    -28.53     24.00
   27.3947     51.64     51.81    -28.13     24.00
   27.4049     51.13     51.96    -28.79     24.00
   27.4150     50.82     52.11    -29.25     24.00
   27.4252     50.98     52.26    -29.24     24.00
   27.4353     52.34     52.42    -28.04     24.00
   27.4455     50.31     52.58    -30.23     24.00
   27.4557     51.01     52.74    -29.69     24.00
   27.4658     51.50     52.90    -29.36     24.00
   27.4760     51.51     53.06    -29.52     24.00
   27.4862     51.71     53.23    -29.49     24.00
   27.4963     51.73     53.40    -29.63     24.00
   27.5065     51.77     53.57    -29.77     24.00
   27.5167     52.25     53.75    -29.46     24.00
   27.5268     51.92     53.92    -29.97     24.00
   27.5370     51.09     54.10    -30.97     24.00
   27.5472     52.41     54.28    -29.84     24.00
   27.5573     52.98     54.46    -29.45     24.00
   27.5675     52.11     54.65    -30.50     24.00
   27.5777     52.99     54.83    -29.81     24.00
   27.5878     52.99     55.02    -29.99     24.00
   27.5980     52.17     55.21    -31.00     24.00
   27.6081     53.49     55.40    -29.87     24.00
   27.6183     53.38     55.59    -30.17     24.00
   27.6285     53.60     55.78    -30.15     24.00
   27.6386     53.09     55.98    -30.85     24.00
   27.6488     53.73     56.17    -30.40     24.00
   27.6590     54.59     56.37    -29.74     24.00
   27.6691     53.85     56.56    -30.68     24.00
   27.6793     54.21     56.76    -30.51     24.00
   27.6895     54.69     56.96    -30.23     24.00
   27.6996     53.95     57.16    -31.17     24.00
   27.7098     54.13     57.36    -31.19     24.00
   27.7200     54.56     57.56    -30.96     24.00
   27.7301     54.76     57.76    -30.96     24.00
   27.7403     54.49     57.96    -31.43     24.00
   27.7504     55.55     58.15    -30.57     24.00
   27.7606     55.14     58.35    -31.18     24.00
   27.7708     54.46     58.55    -32.06     24.00
   27.7809     55.75     58.75    -30.96     24.00
   27.7911     55.49     58.95    -31.42     24.00
   27.8013     55.40     59.15    -31.71     24.00
   27.8114     57.07     59.34    -30.24     24.00
   27.8216     56.60     59.54    -30.90     24.00
   27.8318     57.41     59.73    -30.29     24.00
   27.8419     56.73     59.93    -31.16     24.00
   27.8521     57.74     60.12    -30.34     24.00
   27.8623     58.21     60.31    -30.06     24.00
   27.8724     57.16     60.49    -31.30     24.00
   27.8826     58.10     60.68    -30.54     24.00
   27.8928     59.65     60.86    -29.18     24.00
   27.9029     57.98     61.04    -31.03     24.00
   27.9131     57.90     61.22    -31.29     24.00
   27.9232     60.62     61.40    -28.74     24.00
   27.9334     59.45     61.57    -30.08     24.00
   27.9436     58.59     61.74    -31.11     24.00
   27.9537     60.75     61.91    -29.12     24.00
   27.9639     60.04     62.07    -29.99     24.00
   27.9741     61.11     62.23    -29.08     24.00
   27.9842     60.70     62.39    -29.65     24.00
   27.9944     60.55     62.54    -29.95     24.00
   28.0046     60.65     62.69    -30.00     24.00
   28.0147     60.01     62.83    -30.78     24.00
   28.0249     61.13     62.97    -29.80     24.00
   28.0351     61.38     63.11    -29.69     24.00
   28.0452     62.35     63.24    -28.85     24.00
   28.0554     62.09     63.36    -29.24     24.00
   28.0655     61.98     63.48    -29.46     24.00
   28.0757     64.20     63.60    -27.36     24.00
   28.0859     62.29     63.71    -29.38     24.00
   28.0960     63.85     63.81    -27.92     24.00
   28.1062     62.54     63.91    -29.33     24.00
   28.1164     62.32     64.00    -29.64     24.00
   28.1265     62.92     64.09    -29.13     24.00
   28.1367     63.74     64.17    -28.39     24.00
   28.1469     64.95     64.24    -27.26     24.00
   28.1570     64.27     64.31    -28.00     24.00
   28.1672     65.12     64.37    -27.22     24.00
   28.1774     65.10     64.43    -27.29     24.00
   28.1875     64.35     64.48    -28.09     24.00
   28.1977     64.68     64.52    -27.80     24.00
   28.2079     65.29     64.55    -27.23     24.00
   28.2180     66.47     64.58    -26.07     24.00
   28.2282     65.62     64.60    -26.95     24.00
   28.2383     65.44     64.62    -27.14     24.00
   28.2485     65.68     64.63    -26.91     24.00
   28.2587     66.35     64.63    -26.24     24.00
   28.2688     65.49     64.62    -27.09     24.00
   28.2790     66.47     64.61    -26.10     24.00
   28.2892     66.87     64.59    -25.68     24.00
   28.2993     66.21     64.56    -26.31     24.00
   28.3095     65.05     64.53    -27.44     24.00
   28.3197     66.13     64.49    -26.32     24.00
   28.3298     64.73     64.44    -27.67     24.00
   28.3400     65.91     64.39    -26.44     24.00
   28.3502     65.98     64.33    -26.31     24.00
   28.3603     67.03     64.26    -25.19     24.00
   28.3705     66.45     64.19    -25.70     24.00
   28.3806     65.91     64.11    -26.16     24.00
   28.3908     65.76     64.02    -26.23     24.00
   28.4010     65.78     63.93    -26.11     24.00
   28.4111     66.13     63.84    -25.67     24.00
   28.4213     67.74     63.73    -23.95     24.00
   28.4315     65.66     63.62    -25.92     24.00
   28.4416     66.32     63.51    -25.15     24.00
   28.4518     65.32     63.39    -26.03     24.00
   28.4620     65.72     63.26    -25.50     24.00
   28.4721     64.48     63.13    -26.61     24.00
   28.4823     65.11     63.00    -25.85     24.00
   28.4925     65.30     62.85    -25.52     24.00
   28.5026     63.97     62.71    -26.70     24.00
   28.5128     65.38     62.56    -25.14     24.00
   28.5230     63.27     62.40    -27.10     24.00
   28.5331     63.68     62.25    -26.53     24.00
   28.5433     64.46     62.08    -25.59     24.00
   28.5534     62.61     61.92    -27.27     24.00
   28.5636     65.20     61.75    -24.51     24.00
   28.5738     63.30     61.58    -26.24     24.00
   28.5839     62.95     61.40    -26.41     24.00
   28.5941     61.50     61.22    -27.68     24.00
   28.6043     62.70     61.04    -26.30     24.00
   28.6144     62.04     60.85    -26.77     24.00
   28.6246     62.24     60.66    -26.38     24.00
   28.6348     61.10     60.47    -27.33     24.00
   28.6449     62.73     60.28    -25.51     24.00
   28.6551     61.88     60.08    -26.16     24.00
   28.6653     60.46     59.88    -27.39     24.00
   28.6754     60.97     59.69    -26.68     24.00
   28.6856     60.66     59.48    -26.79     24.00
   28.6957     62.14     59.28    -25.11     24.00
   28.7059     60.66     59.08    -26.38     24.00
   28.7161     61.11     58.87    -25.72     24.00
   28.7262     60.34     58.67    -26.29     24.00
   28.7364     59.71     58.46    -26.71     24.00
   28.7466     58.95     58.25    -27.26     24.00
   28.7567     59.10     58.04    -26.90     24.00
   28.7669     58.20     57.83    -27.59     24.00
   28.7771     57.55     57.62    -28.03     24.00
   28.7872     59.01     57.41    -26.36     24.00
   28.7974     58.23     57.20    -26.93     24.00
   28.8076     56.68     56.99    -28.27     24.00
   28.8177     56.66     56.78    -28.08     24.00
   28.8279     57.64     56.56    -26.89     24.00
   28.8381     56.29     56.35    -28.02     24.00
   28.8482     57.07     56.14    -27.04     24.00
   28.8584     56.57     55.93    -27.32     24.00
   28.8685     55.86     55.72    -27.83     24.00
   28.8787     56.68     55.51    -26.80     24.00
   28.8889     55.80     55.30    -27.47     24.00
   28.8990     55.78     55.10    -27.28     24.00
   28.9092     56.09     54.89    -26.76     24.00
   28.9194     54.73     54.68    -27.92     24.00
   28.9295     54.13     54.48    -28.31     24.00
   28.9397     54.66     54.27    -27.58     24.00
   28.9499     53.85     54.07    -28.18     24.00
   28.9600     53.71     53.87    -28.12     24.00
   28.9702     54.30     53.67    -27.33     24.00
   28.9804     54.56     53.47    -26.87     24.00
   28.9905     53.69     53.27    -27.55     24.00
   29.0007     53.95     53.08    -27.09     24.00
   29.0108     52.19     52.88    -28.66     24.00
   29.0210     52.25     52.69    -28.40     24.00
   29.0312     52.38     52.50    -28.08     24.00
   29.0413     52.30     52.31    -27.97     24.00
   29.0515     53.33     52.12    -26.75     24.00
   29.0617     52.29     51.93    -27.61     24.00
   29.0718     51.66     51.75    -28.05     24.00
   29.0820     52.48     51.57    -27.05     24.00
   29.0922     52.73     51.39    -26.62     24.00
   29.1023     51.94     51.21    -27.23     24.00
   29.1125     51.01     51.03    -27.98     24.00
   29.1227     51.79     50.85    -27.03     24.00
   29.1328     51.27     50.68    -27.37     24.00
   29.1430     51.56     50.51    -26.91     24.00
   29.1531     51.31     50.34    -26.99     24.00
   29.1633     49.98     50.17    -28.16     24.00
   29.1735     50.56     50.01    -27.41     24.00
   29.1836     50.23     49.85    -27.58     24.00
   29.1938     49.30     49.68    -28.35     24.00
   29.2040     49.87     49.52    -27.62     24.00
   29.2141     49.46     49.37    -27.87     24.00
   29.2243     49.46     49.21    -27.71     24.00
   29.2345     49.82     49.06    -27.20     24.00
   29.2446     50.12     48.91    -26.75     24.00
   29.2548     49.57     48.76    -27.15     24.00
   29.2650     49.67     48.61    -26.91     24.00
   29.2751     48.91     48.47    -27.52     24.00
   29.2853     47.67     48.33    -28.62     24.00
   29.2955     48.55     48.18    -27.60     24.00
   29.3056     48.73     48.05    -27.28     24.00
   29.3158     48.02     47.91    -27.85     24.00
   29.3259     48.32     47.78    -27.42     24.00
   29.3361     48.22     47.64    -27.39     24.00
   29.3463     48.19     47.51    -27.28     24.00
   29.3564     47.87     47.38    -27.48     24.00
   29.3666     47.68     47.26    -27.54     24.00
   29.3768     48.49     47.13    -26.60     24.00
   29.3869     46.75     47.01    -28.22     24.00
   29.3971     47.32     46.89    -27.53     24.00
   29.4073     46.77     46.77    -27.96     24.00
   29.4174     46.34     46.65    -28.27     24.00
   29.4276     46.96     46.53    -27.54     24.00
   29.4378     45.66     46.42    -28.72     24.00
   29.4479     47.40     46.31    -26.87     24.00
   29.4581     45.84     46.20    -28.32     24.00
   29.4682     46.19     46.09    -27.86     24.00
   29.4784     46.62     45.98    -27.32     24.00
   29.4886     45.63     45.87    -28.21     24.00
   29.4987     46.14     45.77    -27.59     24.00
   29.5089     46.40     45.67    -27.23     24.00
   29.5191     46.44     45.56    -27.09     24.00
   29.5292     45.74     45.47    -27.69     24.00
   29.5394     45.60     45.37    -27.73     24.00
   29.5496     45.63     45.27    -27.60     24.00
   29.5597     45.57     45.17    -27.57     24.00
   29.5699     45.70     45.08    -27.34     24.00
   29.5801     45.46     44.99    -27.49     24.00
   29.5902     45.67     44.89    -27.19     24.00
   29.6004     45.18     44.80    -27.58     24.00
   29.6106     46.03     44.71    -26.64     24.00
   29.6207     45.31     44.62    -27.28     24.00
   29.6309     45.26     44.54    -27.24     24.00
   29.6410     45.34     44.45    -27.07     24.00
   29.6512     45.16     44.37    -27.17     24.00
   29.6614     45.10     44.28    -27.14     24.00
   29.6715     45.83     44.20    -26.33     24.00
   29.6817     44.68     44.12    -27.40     24.00
   29.6919     44.61     44.03    -27.39     24.00
   29.7020     45.79     43.95    -26.13     24.00
   29.7122     44.84     43.87    -27.00     24.00
   29.7224     44.60     43.79    -27.16     24.00
   29.7325     44.90     43.72    -26.78     24.00
   29.7427     44.35     43.64    -27.25     24.00
   29.7529     44.34     43.56    -27.18     24.00
   29.7630     44.35     43.49    -27.10     24.00
   29.7732     43.98     43.41    -27.39     24.00
   29.7833     44.66     43.34    -26.64     24.00
   29.7935     44.34     43.26    -26.88     24.00
   29.8037     43.76     43.19    -27.39     24.00
   29.8138     43.65     43.11    -27.43     24.00
   29.8240     44.18     43.04    -26.82     24.00
   29.8342     43.10     42.97    -27.83     24.00
   29.8443     43.49     42.90    -27.37     24.00
   29.8545     43.94     42.83    -26.85     24.00
   29.8647     43.29     42.75    -27.43     24.00
   29.8748     43.79     42.68    -26.86     24.00
   29.8850     43.27     42.61    -27.31     24.00
   29.8952     43.30     42.54    -27.21     24.00
   29.9053     43.71     42.47    -26.73     24.00
   29.9155     43.25     42.41    -27.12     24.00
   29.9257     42.86     42.34    -27.44     24.00
   29.9358     43.70     42.27    -26.53     24.00
   29.9460     42.20     42.20    -27.96     24.00
   29.9561     43.07     42.13    -27.02     24.00
   29.9663     42.95     42.06    -27.07     24.00
   29.9765     42.91     41.99    -27.05     24.00
   29.9866     42.76     41.93    -27.13     24.00
   29.9968     43.19     41.86    -26.63     24.00
   30.0070     42.02     41.79    -27.73     24.00
   30.0171     41.80     41.72    -27.89     24.00
   30.0273     42.86     41.66    -26.76     24.00
   30.0375     43.58     41.59    -25.97     24.00
   30.0476     42.39     41.52    -27.09     24.00
   30.0578     43.05     41.45    -26.37     24.00
   30.0680     42.51     41.39    -26.84     24.00
   30.0781     41.28     41.32    -28.00     24.00
   30.0883     41.96     41.25    -27.25     24.00
   30.0984     42.52     41.19    -26.63     24.00
   30.1086     41.44     41.12    -27.64     24.00
   30.1188     41.10     41.05    -27.91     24.00
   30.1289     41.93     40.99    -27.02     24.00
   30.1391     40.99     40.92    -27.89     24.00
   30.1493     41.12     40.85    -27.69     24.00
   30.1594     40.94     40.78    -27.81     24.00
   30.1696     40.74     40.72    -27.94     24.00
   30.1798     41.29     40.65    -27.32     24.00
   30.1899     41.48     40.58    -27.07     24.00
   30.2001     41.05     40.52    -27.43     24.00
   30.2103     40.56     40.45    -27.85     24.00
   30.2204     40.70     40.38    -27.64     24.00
   30.2306     39.86     40.31    -28.42     24.00
   30.2408     40.57     40.25    -27.64     24.00
   30.2509     39.95     40.18    -28.19     24.00
   30.2611     39.43     40.11    -28.64     24.00
   30.2712     39.59     40.05    -28.42     24.00
   30.2814     39.92     39.98    -28.02     24.00
   30.2916     39.70     39.91    -28.17     24.00
   30.3017     39.76     39.84    -28.05     24.00
   30.3119     38.77     39.78    -28.97     24.00
   30.3221     39.01     39.71    -28.66     24.00
   30.3322     39.68     39.64    -27.92     24.00
   30.3424     40.14     39.57    -27.39     24.00
   30.3526     38.38     39.50    -29.09     24.00
   30.3627     39.29     39.44    -28.11     24.00
   30.3729     38.95     39.37    -28.38     24.00
   30.3831     38.32     39.30    -28.94     24.00
   30.3932     38.27     39.23    -28.93     24.00
   30.4034     39.38     39.17    -27.75     24.00
   30.4135     38.78     39.10    -28.28     24.00
   30.4237     38.70     39.03    -28.29     24.00
   30.4339     38.37     38.96    -28.55     24.00
   30.4440     38.18     38.90    -28.68     24.00
   30.4542     38.01     38.83    -28.78     24.00
   30.4644     38.04     38.76    -28.68     24.00
   30.4745     38.07     38.69    -28.58     24.00
   30.4847     38.80     38.62    -27.79     24.00
   30.4949     39.40     38.56    -27.12     24.00
   30.5050     38.55     38.49    -27.90     24.00
   30.5152     38.34     38.42    -28.04     24.00
   30.5254     37.96     38.35    -28.36     24.00
   30.5355     37.65     38.29    -28.60     24.00
   30.5457     37.95     38.22    -28.23     24.00
   30.5559     37.74     38.15    -28.37     24.00
   30.5660     37.51     38.08    -28.54     24.00
   30.5762     37.20     38.02    -28.78     24.00
   30.5863     37.61     37.95    -28.30     24.00
   30.5965     37.24     37.88    -28.60     24.00
   30.6067     37.66     37.81    -28.12     24.00
   30.6168     36.66     37.75    -29.05     24.00
   30.6270     36.90     37.68    -28.74     24.00
   30.6372     36.90     37.61    -28.68     24.00
   30.6473     36.82     37.55    -28.69     24.00
   30.6575     37.72     37.48    -27.72     24.00
   30.6677     37.35     37.41    -28.03     24.00
   30.6778     36.29     37.35    -29.02     24.00
   30.6880     36.80     37.28    -28.44     24.00
   30.6982     36.54     37.22    -28.64     24.00
   30.7083     36.46     37.15    -28.65     24.00
   30.7185     36.62     37.09    -28.43     24.00
   30.7286     37.47     37.02    -27.51     24.00
   30.7388     36.46     36.95    -28.46     24.00
   30.7490     36.71     36.89    -28.14     24.00
   30.7591     36.78     36.82    -28.01     24.00
   30.7693     37.10     36.76    -27.62     24.00
   30.7795     36.18     36.69    -28.48     24.00
   30.7896     36.63     36.63    -27.96     24.00
   30.7998     36.67     36.57    -27.86     24.00
   30.8100     36.10     36.50    -28.36     24.00
   30.8201     36.40     36.44    -28.00     24.00
   30.8303     36.56     36.37    -27.78     24.00
   30.8405     35.82     36.31    -28.45     24.00
   30.8506     36.71     36.25    -27.50     24.00
   30.8608     35.66     36.19    -28.49     24.00
   30.8710     35.56     36.12    -28.52     24.00
   30.8811     35.81     36.06    -28.21     24.00
   30.8913     36.11     36.00    -27.85     24.00
   30.9014     36.13     35.94    -27.77     24.00
   30.9116     36.05     35.88    -27.79     24.00
   30.9218     36.07     35.81    -27.71     24.00
   30.9319     36.20     35.75    -27.51     24.00
   30.9421     35.70     35.69    -27.95     24.00
   30.9523     34.81     35.63    -28.78     24.00
   30.9624     35.43     35.57    -28.10     24.00
   30.9726     35.49     35.51    -27.98     24.00
   30.9828     35.87     35.45    -27.54     24.00
   30.9929     35.28     35.39    -28.07     24.00
   31.0031     34.65     35.33    -28.65     24.00
   31.0133     36.81     35.27    -26.43     24.00
   31.0234     35.98     35.22    -27.20     24.00
   31.0336     35.25     35.16    -27.87     24.00
   31.0437     35.76     35.10    -27.30     24.00
   31.0539     35.02     35.04    -27.99     24.00
   31.0641     35.83     34.99    -27.12     24.00
   31.0742     35.11     34.93    -27.78     24.00
   31.0844     33.55     34.87    -29.29     24.00
   31.0946     35.41     34.82    -27.37     24.00
   31.1047     35.29     34.76    -27.43     24.00
   31.1149     34.54     34.71    -28.13     24.00
   31.1251     35.58     34.65    -27.03     24.00
   31.1352     35.32     34.60    -27.24     24.00
   31.1454     34.66     34.54    -27.84     24.00
   31.1556     33.99     34.49    -28.46     24.00
   31.1657     34.83     34.44    -27.57     24.00
   31.1759     35.57     34.38    -26.77     24.00
   31.1860     34.38     34.33    -27.91     24.00
   31.1962     35.73     34.28    -26.51     24.00
   31.2064     34.62     34.23    -27.57     24.00
   31.2165     35.27     34.17    -26.87     24.00
   31.2267     35.05     34.12    -27.04     24.00
   31.2369     35.30     34.07    -26.73     24.00
   31.2470     34.12     34.02    -27.86     24.00
   31.2572     34.51     33.97    -27.42     24.00
   31.2674     33.87     33.92    -28.01     24.00
   31.2775     34.35     33.87    -27.49     24.00
   31.2877     34.84     33.82    -26.95     24.00
   31.2979     33.34     33.78    -28.40     24.00
   31.3080     34.10     33.73    -27.59     24.00
   31.3182     33.89     33.68    -27.75     24.00
   31.3284     33.72     33.63    -27.88     24.00
   31.3385     34.27     33.59    -27.28     24.00
   31.3487     33.76     33.54    -27.74     24.00
   31.3588     33.42     33.50    -28.04     24.00
   31.3690     34.34     33.45    -27.07     24.00
   31.3792     35.38     33.40    -25.99     24.00
   31.3893     33.88     33.36    -27.44     24.00
   31.3995     33.49     33.32    -27.79     24.00
   31.4097     34.76     33.27    -26.47     24.00
   31.4198     33.95     33.23    -27.24     24.00
   31.4300     34.29     33.19    -26.86     24.00
   31.4402     34.87     33.14    -26.24     24.00
   31.4503     33.55     33.10    -27.51     24.00
   31.4605     34.25     33.06    -26.77     24.00
   31.4707     33.53     33.02    -27.45     24.00
   31.4808     33.95     32.98    -26.99     24.00
   31.4910     34.05     32.94    -26.85     24.00
   31.5011     33.81     32.90    -27.05     24.00
   31.5113     33.93     32.86    -26.89     24.00
   31.5215     33.35     32.82    -27.43     24.00
   31.5316     35.02     32.78    -25.72     24.00
   31.5418     33.81     32.74    -26.89     24.00
   31.5520     33.33     32.70    -27.34     24.00
   31.5621     34.40     32.67    -26.23     24.00
   31.5723     33.19     32.63    -27.40     24.00
   31.5825     33.67     32.59    -26.89     24.00
   31.5926     33.96     32.56    -26.56     24.00
   31.6028     33.27     32.52    -27.21     24.00
   31.6130     33.57     32.49    -26.88     24.00
   31.6231     33.15     32.45    -27.27     24.00
   31.6333     33.44     32.42    -26.94     24.00
   31.6435     33.23     32.38    -27.12     24.00
   31.6536     33.62     32.35    -26.69     24.00
   31.6638     32.31     32.32    -27.97     24.00
   31.6739     33.41     32.29    -26.84     24.00
   31.6841     33.90     32.25    -26.32     24.00
   31.6943     33.35     32.22    -26.83     24.00
   31.7044     33.46     32.19    -26.69     24.00
   31.7146     33.75     32.16    -26.37     24.00
   31.7248     33.07     32.13    -27.02     24.00
   31.7349     33.28     32.10    -26.78     24.00
   31.7451     33.07     32.07    -26.96     24.00
   31.7553     33.33     32.04    -26.67     24.00
   31.7654     32.55     32.01    -27.42     24.00
   31.7756     33.32     31.98    -26.63     24.00
   31.7858     32.59     31.96    -27.33     24.00
   31.7959     33.38     31.93    -26.51     24.00
   31.8061     32.90     31.90    -26.96     24.00
   31.8162     33.78     31.88    -26.06     24.00
   31.8264     33.86     31.85    -25.95     24.00
   31.8366     33.49     31.82    -26.29     24.00
   31.8467     33.26     31.80    -26.50     24.00
   31.8569     33.49     31.77    -26.24     24.00
   31.8671     33.22     31.75    -26.49     24.00
   31.8772     32.84     31.72    -26.85     24.00
   31.8874     32.82     31.70    -26.84     24.00
   31.8976     33.31     31.68    -26.33     24.00
   31.9077     32.85     31.65    -26.76     24.00
   31.9179     33.01     31.63    -26.58     24.00
   31.9281     33.20     31.61    -26.37     24.00
   31.9382     33.23     31.59    -26.32     24.00
   31.9484     33.77     31.56    -25.76     24.00
   31.9586     33.31     31.54    -26.19     24.00
   31.9687     32.84     31.52    -26.64     24.00
   31.9789     32.69     31.50    -26.77     24.00
   31.9890     33.10     31.48    -26.34     24.00
   31.9992     33.36     31.46    -26.06     24.00
   32.0094     32.86     31.44    -26.54     24.00
   32.0195     33.96     31.42    -25.42     24.00
   32.0297     32.75     31.40    -26.62     24.00
   32.0399     33.20     31.39    -26.15     24.00
   32.0500     33.19     31.37    -26.14     24.00
   32.0602     33.68     31.35    -25.63     24.00
   32.0704     32.87     31.33    -26.42     24.00
   32.0805     33.27     31.31    -26.01     24.00
   32.0907     32.93     31.30    -26.33     24.00
   32.1009     33.29     31.28    -25.95     24.00
   32.1110     33.30     31.27    -25.93     24.00
   32.1212     32.49     31.25    -26.72     24.00
   32.1313     32.74     31.23    -26.46     24.00
   32.1415     33.20     31.22    -25.98     24.00
   32.1517     32.72     31.20    -26.45     24.00
   32.1618     33.19     31.19    -25.96     24.00
   32.1720     32.82     31.18    -26.32     24.00
   32.1822     32.42     31.16    -26.70     24.00
   32.1923     32.88     31.15    -26.23     24.00
   32.2025     32.93     31.13    -26.17     24.00
   32.2127     32.72     31.12    -26.36     24.00
   32.2228     32.83     31.11    -26.24     24.00
   32.2330     33.39     31.10    -25.67     24.00
   32.2432     32.81     31.08    -26.24     24.00
   32.2533     33.07     31.07    -25.96     24.00
   32.2635     33.10     31.06    -25.92     24.00
   32.2737     33.09     31.05    -25.92     24.00
   32.2838     33.15     31.04    -25.85     24.00
   32.2940     31.91     31.03    -27.08     24.00
   32.3041     32.56     31.02    -26.42     24.00
   32.3143     32.40     31.01    -26.57     24.00
   32.3245     33.07     31.00    -25.89     24.00
   32.3346     32.33     30.99    -26.62     24.00
   32.3448     33.32     30.98    -25.62     24.00
   32.3550     32.46     30.97    -26.47     24.00
   32.3651     32.18     30.96    -26.74     24.00
   32.3753     33.09     30.95    -25.82     24.00
   32.3855     32.66     30.94    -26.24     24.00
   32.3956     33.21     30.93    -25.68     24.00
   32.4058     32.93     30.92    -25.95     24.00
   32.4160     33.05     30.91    -25.83     24.00
   32.4261     33.05     30.91    -25.82     24.00
   32.4363     33.40     30.90    -25.46     24.00
   32.4464     32.33     30.89    -26.52     24.00
   32.4566     31.89     30.88    -26.96     24.00
   32.4668     32.34     30.88    -26.50     24.00
   32.4769     32.86     30.87    -25.97     24.00
   32.4871     32.65     30.86    -26.17     24.00
   32.4973     32.71     30.85    -26.11     24.00
   32.5074     33.27     30.85    -25.54     24.00
   32.5176     33.18     30.84    -25.62     24.00
   32.5278     33.37     30.84    -25.43     24.00
   32.5379     32.55     30.83    -26.24     24.00
   32.5481     32.39     30.82    -26.39     24.00
   32.5583     33.08     30.82    -25.70     24.00
   32.5684     32.89     30.81    -25.88     24.00
   32.5786     32.32     30.81    -26.45     24.00
   32.5888     32.93     30.80    -25.83     24.00
   32.5989     32.50     30.79    -26.26     24.00
   32.6091     32.01     30.79    -26.74     24.00
   32.6192     33.23     30.78    -25.52     24.00
   32.6294     34.34     30.78    -24.40     24.00
   32.6396     32.59     30.77    -26.15     24.00
   32.6497     32.72     30.77    -26.01     24.00
   32.6599     31.94     30.76    -26.79     24.00
   32.6701     32.33     30.76    -26.39     24.00
   32.6802     33.09     30.75    -25.63     24.00
   32.6904     32.51     30.75    -26.20     24.00
   32.7006     32.63     30.74    -26.08     24.00
   32.7107     32.46     30.74    -26.24     24.00
   32.7209     32.69     30.74    -26.01     24.00
   32.7311     32.46     30.73    -26.23     24.00
   32.7412     33.54     30.73    -25.15     24.00
   32.7514     32.51     30.72    -26.17     24.00
   32.7615     32.96     30.72    -25.72     24.00
   32.7717     32.68     30.71    -26.00     24.00
   32.7819     31.99     30.71    -26.68     24.00
   32.7920     33.13     30.71    -25.54     24.00
   32.8022     32.71     30.70    -25.95     24.00
   32.8124     32.85     30.70    -25.81     24.00
   32.8225     32.78     30.69    -25.87     24.00
   32.8327     33.33     30.69    -25.32     24.00
   32.8429     32.51     30.68    -26.14     24.00
   32.8530     33.11     30.68    -25.53     24.00
   32.8632     32.49     30.68    -26.15     24.00
   32.8734     32.79     30.67    -25.84     24.00
   32.8835     31.63     30.67    -27.00     24.00
   32.8937     32.79     30.66    -25.83     24.00
   32.9039     33.68     30.66    -24.94     24.00
   32.9140     32.72     30.65    -25.90     24.00
   32.9242     33.09     30.65    -25.52     24.00
   32.9343     34.05     30.64    -24.56     24.00
   32.9445     33.02     30.64    -25.58     24.00
   32.9547     32.71     30.63    -25.89     24.00
   32.9648     33.21     30.63    -25.38     24.00
   32.9750     32.57     30.63    -26.02     24.00
   32.9852     32.92     30.62    -25.66     24.00
   32.9953     32.41     30.62    -26.17     24.00
   33.0055     32.31     30.61    -26.26     24.00
   33.0157     33.01     30.61    -25.56     24.00
   33.0258     33.28     30.60    -25.28     24.00
   33.0360     33.10     30.59    -25.46     24.00
   33.0462     32.87     30.59    -25.68     24.00
   33.0563     33.20     30.58    -25.35     24.00
   33.0665     33.59     30.58    -24.95     24.00
   33.0766     33.29     30.57    -25.24     24.00
   33.0868     32.79     30.57    -25.74     24.00
   33.0970     33.90     30.56    -24.62     24.00
   33.1071     32.57     30.56    -25.95     24.00
   33.1173     33.45     30.55    -25.06     24.00
   33.1275     33.58     30.54    -24.92     24.00
   33.1376     33.13     30.54    -25.37     24.00
   33.1478     32.63     30.53    -25.86     24.00
   33.1580     32.95     30.52    -25.53     24.00
   33.1681     33.84     30.52    -24.64     24.00
   33.1783     32.84     30.51    -25.63     24.00
   33.1885     33.01     30.50    -25.45     24.00
   33.1986     33.51     30.49    -24.95     24.00
   33.2088     33.98     30.49    -24.47     24.00
   33.2189     34.10     30.48    -24.34     24.00
   33.2291     33.40     30.47    -25.03     24.00
   33.2393     34.10     30.46    -24.33     24.00
   33.2494     33.30     30.46    -25.12     24.00
   33.2596     33.44     30.45    -24.97     24.00
   33.2698     33.55     30.44    -24.85     24.00
   33.2799     32.96     30.43    -25.43     24.00
   33.2901     33.56     30.42    -24.83     24.00
   33.3003     33.15     30.41    -25.23     24.00
   33.3104     32.93     30.41    -25.44     24.00
   33.3206     33.04     30.40    -25.32     24.00
   33.3308     32.82     30.39    -25.53     24.00
   33.3409     33.15     30.38    -25.19     24.00
   33.3511     33.33     30.37    -25.00     24.00
   33.3613     32.54     30.36    -25.78     24.00
   33.3714     33.05     30.35    -25.26     24.00
   33.3816     33.37     30.34    -24.93     24.00
   33.3917     32.91     30.33    -25.38     24.00
   33.4019     32.77     30.32    -25.51     24.00
   33.4121     33.25     30.31    -25.02     24.00
   33.4222     32.88     30.30    -25.38     24.00
   33.4324     32.63     30.28    -25.62     24.00
   33.4426     32.29     30.27    -25.95     24.00
   33.4527     32.55     30.26    -25.67     24.00
   33.4629     32.51     30.25    -25.70     24.00
   33.4731     32.84     30.24    -25.36     24.00
   33.4832     32.37     30.23    -25.82     24.00
   33.4934     32.13     30.22    -26.05     24.00
   33.5036     32.91     30.20    -25.26     24.00
   33.5137     32.09     30.19    -26.06     24.00
   33.5239     31.98     30.18    -26.16     24.00
   33.5340     32.72     30.17    -25.41     24.00
   33.5442     32.44     30.15    -25.67     24.00
   33.5544     31.38     30.14    -26.72     24.00
   33.5645     31.68     30.13    -26.41     24.00
   33.5747     31.70     30.11    -26.38     24.00
   33.5849     31.30     30.10    -26.76     24.00
   33.5950     31.79     30.09    -26.26     24.00
   33.6052     31.09     30.07    -26.94     24.00
   33.6154     30.29     30.06    -27.73     24.00
   33.6255     30.93     30.04    -27.08     24.00
   33.6357     30.99     30.03    -27.00     24.00
   33.6459     30.67     30.02    -27.31     24.00
   33.6560     30.97     30.00    -26.99     24.00
   33.6662     30.21     29.99    -27.74     24.00
   33.6764     30.77     29.97    -27.16     24.00
   33.6865     30.26     29.96    -27.66     24.00
   33.6967     30.06     29.94    -27.84     24.00
   33.7068     30.62     29.93    -27.27     24.00
   33.7170     29.82     29.91    -28.05     24.00
   33.7272     30.24     29.90    -27.62     24.00
   33.7373     29.83     29.88    -28.01     24.00
   33.7475     30.23     29.86    -27.60     24.00
   33.7577     29.92     29.85    -27.89     24.00
   33.7678     29.26     29.83    -28.53     24.00
   33.7780     30.32     29.82    -27.46     24.00
   33.7882     30.20     29.80    -27.56     24.00
   33.7983     28.99     29.78    -28.75     24.00
   33.8085     29.57     29.77    -28.16     24.00
   33.8187     29.45     29.75    -28.26     24.00
   33.8288     29.27     29.73    -28.43     24.00
   33.8390     28.60     29.72    -29.08     24.00
   33.8491     29.88     29.70    -27.78     24.00
   33.8593     28.85     29.68    -28.79     24.00
   33.8695     29.24     29.67    -28.39     24.00
   33.8796     29.38     29.65    -28.23     24.00
   33.8898     28.32     29.63    -29.27     24.00
   33.9000     29.04     29.61    -28.54     24.00
   33.9101     28.91     29.60    -28.65     24.00
   33.9203     28.24     29.58    -29.30     24.00
   33.9305     29.05     29.56    -28.47     24.00
   33.9406     28.94     29.54    -28.56     24.00
   33.9508     28.94     29.53    -28.55     24.00
   33.9610     28.24     29.51    -29.23     24.00
   33.9711     27.79     29.49    -29.66     24.00
   33.9813     28.93     29.47    -28.50     24.00
   33.9915     28.40     29.45    -29.02     24.00
   34.0016     28.62     29.44    -28.78     24.00
   34.0118     28.75     29.42    -28.63     24.00
   34.0219     28.24     29.40    -29.12     24.00
   34.0321     27.55     29.38    -29.79     24.00
   34.0423     28.10     29.36    -29.22     24.00
   34.0524     27.80     29.34    -29.51     24.00
   34.0626     28.44     29.33    -28.85     24.00
   34.0728     28.44     29.31    -28.83     24.00
   34.0829     28.42     29.29    -28.83     24.00
   34.0931     28.41     29.27    -28.82     24.00
   34.1033     28.40     29.25    -28.81     24.00
   34.1134     28.54     29.23    -28.65     24.00
   34.1236     28.07     29.21    -29.11     24.00
   34.1338     27.94     29.19    -29.22     24.00
   34.1439     28.12     29.18    -29.02     24.00
   34.1541     26.71     29.16    -30.41     24.00
   34.1642     27.74     29.14    -29.36     24.00
   34.1744     27.48     29.12    -29.60     24.00
   34.1846     27.79     29.10    -29.27     24.00
   34.1947     28.23     29.08    -28.81     24.00
   34.2049     27.74     29.06    -29.29     24.00
   34.2151     27.74     29.04    -29.27     24.00
   34.2252     28.16     29.03    -28.83     24.00
   34.2354     27.95     29.01    -29.02     24.00
   34.2456     27.79     28.99    -29.16     24.00
   34.2557     27.61     28.97    -29.32     24.00
   34.2659     27.52     28.95    -29.39     24.00
   34.2761     26.86     28.93    -30.03     24.00
   34.2862     27.82     28.91    -29.06     24.00
   34.2964     27.52     28.89    -29.34     24.00
   34.3066     27.15     28.88    -29.69     24.00
   34.3167     27.55     28.86    -29.27     24.00
   34.3269     27.37     28.84    -29.43     24.00
   34.3370     26.85     28.82    -29.93     24.00
   34.3472     27.21     28.80    -29.55     24.00
   34.3574     26.95     28.78    -29.79     24.00
   34.3675     27.61     28.76    -29.12     24.00
   34.3777     27.45     28.74    -29.26     24.00
   34.3879     27.72     28.73    -28.97     24.00
   34.3980     27.25     28.71    -29.42     24.00
   34.4082     26.46     28.69    -30.19     24.00
   34.4184     27.30     28.67    -29.33     24.00
   34.4285     26.08     28.65    -30.53     24.00
   34.4387     26.91     28.63    -29.68     24.00
   34.4489     25.80     28.61    -30.78     24.00
   34.4590     27.27     28.60    -29.29     24.00
   34.4692     26.67     28.58    -29.87     24.00
   34.4793     26.52     28.56    -30.00     24.00
   34.4895     26.85     28.54    -29.65     24.00
   34.4997     27.41     28.52    -29.07     24.00
   34.5098     27.49     28.50    -28.98     24.00
   34.5200     27.70     28.49    -28.75     24.00
   34.5302     26.51     28.47    -29.92     24.00
   34.5403     26.68     28.45    -29.73     24.00
   34.5505     26.88     28.43    -29.51     24.00
   34.5607     26.55     28.41    -29.83     24.00
   34.5708     26.71     28.40    -29.65     24.00
   34.5810     27.29     28.38    -29.05     24.00
   34.5912     26.59     28.36    -29.73     24.00
   34.6013     27.29     28.34    -29.02     24.00
   34.6115     26.87     28.33    -29.42     24.00
   34.6217     27.17     28.31    -29.10     24.00
   34.6318     26.60     28.29    -29.65     24.00
   34.6420     26.41     28.27    -29.82     24.00
   34.6521     26.64     28.26    -29.58     24.00
   34.6623     25.91     28.24    -30.29     24.00
   34.6725     26.65     28.22    -29.53     24.00
   34.6826     26.49     28.20    -29.68     24.00
   34.6928     27.06     28.19    -29.09     24.00
   34.7030     26.65     28.17    -29.48     24.00
   34.7131     26.76     28.15    -29.35     24.00
   34.7233     26.65     28.14    -29.45     24.00
   34.7335     26.34     28.12    -29.74     24.00
   34.7436     26.27     28.10    -29.79     24.00
   34.7538     26.51     28.09    -29.54     24.00
   34.7640     26.37     28.07    -29.66     24.00
   34.7741     26.93     28.05    -29.08     24.00
   34.7843     27.12     28.04    -28.88     24.00
   34.7944     26.40     28.02    -29.58     24.00
   34.8046     26.34     28.00    -29.62     24.00
   34.8148     26.59     27.99    -29.36     24.00
   34.8249     26.70     27.97    -29.23     24.00
   34.8351     26.13     27.95    -29.79     24.00
   34.8453     25.73     27.94    -30.17     24.00
   34.8554     26.01     27.92    -29.87     24.00
   34.8656     26.09     27.91    -29.78     24.00
   34.8758     25.77     27.89    -30.08     24.00
   34.8859     26.50     27.88    -29.34     24.00
   34.8961     26.24     27.86    -29.58     24.00
   34.9063     27.05     27.84    -28.76     24.00
   34.9164     25.70     27.83    -30.09     24.00
   34.9266     26.66     27.81    -29.12     24.00
   34.9367     26.20     27.80    -29.56     24.00
   34.9469     25.41     27.78    -30.34     24.00
   34.9571     26.07     27.77    -29.66     24.00
   34.9672     25.00     27.75    -30.72     24.00
   34.9774     25.70     27.74    -30.00     24.00
   34.9876     26.37     27.72    -29.32     24.00
   34.9977     25.96     27.71    -29.71     24.00
   35.0079     26.15     27.69    -29.51     24.00
   35.0181     25.72     27.68    -29.92     24.00
   35.0282     25.72     27.67    -29.91     24.00
   35.0384     26.21     27.65    -29.40     24.00
   35.0486     25.89     27.64    -29.71     24.00
   35.0587     25.98     27.62    -29.60     24.00
   35.0689     26.16     27.61    -29.41     24.00
   35.0791     25.98     27.59    -29.58     24.00
   35.0892     25.96     27.58    -29.58     24.00
   35.0994     25.90     27.57    -29.63     24.00
   35.1095     26.62     27.55    -28.89     24.00
   35.1197     26.43     27.54    -29.07     24.00
   35.1299     26.18     27.53    -29.31     24.00
   35.1400     25.81     27.51    -29.66     24.00
   35.1502     25.95     27.50    -29.51     24.00
   35.1604     25.90     27.49    -29.55     24.00
   35.1705     25.34     27.47    -30.09     24.00
   35.1807     25.60     27.46    -29.82     24.00
   35.1909     25.57     27.45    -29.84     24.00
   35.2010     26.22     27.43    -29.18     24.00
   35.2112     25.45     27.42    -29.93     24.00
   35.2214     26.20     27.41    -29.17     24.00
   35.2315     25.82     27.40    -29.54     24.00
   35.2417     25.29     27.38    -30.05     24.00
   35.2518     25.29     27.37    -30.04     24.00
   35.2620     25.74     27.36    -29.58     24.00
   35.2722     26.14     27.35    -29.17     24.00
   35.2823     26.13     27.33    -29.17     24.00
   35.2925     25.23     27.32    -30.05     24.00
   35.3027     25.79     27.31    -29.48     24.00
   35.3128     25.38     27.30    -29.88     24.00
   35.3230     25.43     27.29    -29.82     24.00
   35.3332     26.57     27.27    -28.67     24.00
   35.3433     25.40     27.26    -29.82     24.00
   35.3535     25.60     27.25    -29.61     24.00
   35.3637     26.09     27.24    -29.11     24.00
   35.3738     25.30     27.23    -29.89     24.00
   35.3840     25.48     27.22    -29.70     24.00
   35.3942     25.64     27.21    -29.53     24.00
   35.4043     24.95     27.19    -30.21     24.00
   35.4145     24.98     27.18    -30.17     24.00
   35.4246     25.40     27.17    -29.73     24.00
   35.4348     25.62     27.16    -29.50     24.00
   35.4450     26.26     27.15    -28.85     24.00
   35.4551     25.95     27.14    -29.15     24.00
   35.4653     25.24     27.13    -29.85     24.00
   35.4755     25.60     27.12    -29.48     24.00
   35.4856     26.46     27.11    -28.61     24.00
   35.4958     25.78     27.10    -29.28     24.00
   35.5060     25.18     27.09    -29.87     24.00
   35.5161     26.05     27.08    -28.99     24.00
   35.5263     25.05     27.07    -29.98     24.00
   35.5365     25.53     27.06    -29.49     24.00
   35.5466     24.86     27.05    -30.15     24.00
   35.5568     25.34     27.04    -29.66     24.00
   35.5669     25.04     27.03    -29.95     24.00
   35.5771     25.65     27.02    -29.33     24.00
   35.5873     24.66     27.01    -30.31     24.00
   35.5974     25.87     27.00    -29.09     24.00
   35.6076     25.45     26.99    -29.50     24.00
   35.6178     25.03     26.98    -29.91     24.00
   35.6279     25.32     26.97    -29.61     24.00
   35.6381     25.45     26.96    -29.47     24.00
   35.6483     25.53     26.95    -29.39     24.00
   35.6584     25.56     26.94    -29.35     24.00
   35.6686     25.32     26.94    -29.58     24.00
   35.6788     24.91     26.93    -29.98     24.00
   35.6889     25.52     26.92    -29.36     24.00
   35.6991     25.24     26.91    -29.63     24.00
   35.7093     25.02     26.90    -29.84     24.00
   35.7194     25.23     26.89    -29.62     24.00
   35.7296     25.49     26.88    -29.36     24.00
   35.7397     25.46     26.88    -29.38     24.00
   35.7499     24.89     26.87    -29.94     24.00
   35.7601     25.16     26.86    -29.66     24.00
   35.7702     25.54     26.85    -29.27     24.00
   35.7804     25.24     26.84    -29.56     24.00
   35.7906     24.30     26.83    -30.50     24.00
   35.8007     25.01     26.83    -29.78     24.00
   35.8109     26.01     26.82    -28.77     24.00
   35.8211     24.87     26.81    -29.90     24.00
   35.8312     24.54     26.80    -30.22     24.00
   35.8414     25.20     26.79    -29.56     24.00
   35.8516     25.35     26.79    -29.40     24.00
   35.8617     26.01     26.78    -28.73     24.00
   35.8719     24.32     26.77    -30.41     24.00
   35.8820     25.30     26.76    -29.43     24.00
   35.8922     25.42     26.76    -29.30     24.00
   35.9024     25.66     26.75    -29.05     24.00
   35.9125     24.64     26.74    -30.06     24.00
   35.9227     25.52     26.74    -29.18     24.00
   35.9329     25.94     26.73    -28.75     24.00
   35.9430     25.73     26.72    -28.95     24.00
   35.9532     25.09     26.71    -29.59     24.00
   35.9634     25.22     26.71    -29.45     24.00
   35.9735     25.38     26.70    -29.28     24.00
   35.9837     25.59     26.69    -29.07     24.00
   35.9939     25.15     26.69    -29.50     24.00
