 => TITLE: 
 => Data file name: C:\Users\stefano\Nextcloud2\uni\master-thesis\XRD\data\G105\G105--5-40-0.01-1000ms.xy
 => Instrm        :    1
 => Lambda(1&2)   :   1.54060  1.54060
 => Numb.of.points:      2951
 => Numb.of.peaks :         8
    2Theta     Yobs     Ycalc  Yobs-Ycal    Backg    Bragg     Posr  Intensity   FWHM    Eta
    6.0086     23.76     25.48    -28.73     24.00   18.6603     -2.25     147.06  0.8187  0.1703
    6.0187     24.04     25.49    -28.45     24.00   20.4617     -2.25      82.91  1.5370  0.1703
    6.0289     23.42     25.49    -29.08     24.00   22.5065     -2.25     109.07  1.1278  0.1703
    6.0391     23.78     25.50    -28.72     24.00   28.5160     -2.25      46.35  1.2219  0.1703
    6.0492     23.98     25.50    -28.52     24.00   29.9864     -2.25      25.02  2.0298  0.1703
    6.0594     23.67     25.51    -28.84     24.00   33.4586     -2.25      14.08  2.0298  0.1703
    6.0696     23.58     25.51    -28.93     24.00   17.4011     -2.25      55.16  2.0298  0.1703
    6.0797     23.40     25.51    -29.12     24.00   19.9091     -2.25     785.77 10.3605  0.1703
    6.0899     23.81     25.52    -28.71     24.00
    6.1001     24.00     25.52    -28.53     24.00
    6.1102     23.20     25.53    -29.33     24.00
    6.1204     23.49     25.53    -29.05     24.00
    6.1306     23.11     25.54    -29.43     24.00
    6.1407     23.98     25.54    -28.57     24.00
    6.1509     23.38     25.55    -29.17     24.00
    6.1611     22.83     25.55    -29.73     24.00
    6.1712     23.63     25.56    -28.93     24.00
    6.1814     23.39     25.56    -29.17     24.00
    6.1915     23.49     25.57    -29.08     24.00
    6.2017     23.38     25.57    -29.19     24.00
    6.2119     23.13     25.57    -29.45     24.00
    6.2220     23.18     25.58    -29.40     24.00
    6.2322     23.07     25.58    -29.52     24.00
    6.2424     22.69     25.59    -29.90     24.00
    6.2525     23.31     25.59    -29.29     24.00
    6.2627     23.20     25.60    -29.40     24.00
    6.2729     23.52     25.60    -29.09     24.00
    6.2830     22.90     25.61    -29.71     24.00
    6.2932     22.88     25.61    -29.74     24.00
    6.3034     23.27     25.62    -29.35     24.00
    6.3135     23.41     25.62    -29.22     24.00
    6.3237     23.15     25.63    -29.48     24.00
    6.3338     22.77     25.63    -29.87     24.00
    6.3440     23.09     25.64    -29.55     24.00
    6.3542     22.51     25.64    -30.14     24.00
    6.3643     23.23     25.65    -29.42     24.00
    6.3745     22.64     25.65    -30.02     24.00
    6.3847     22.98     25.66    -29.68     24.00
    6.3948     22.84     25.67    -29.83     24.00
    6.4050     22.65     25.67    -30.02     24.00
    6.4152     22.80     25.68    -29.88     24.00
    6.4253     23.94     25.68    -28.75     24.00
    6.4355     23.43     25.69    -29.26     24.00
    6.4457     23.02     25.69    -29.68     24.00
    6.4558     23.70     25.70    -29.00     24.00
    6.4660     23.43     25.70    -29.28     24.00
    6.4762     22.63     25.71    -30.08     24.00
    6.4863     23.33     25.71    -29.39     24.00
    6.4965     23.05     25.72    -29.67     24.00
    6.5066     22.87     25.72    -29.86     24.00
    6.5168     22.79     25.73    -29.94     24.00
    6.5270     23.82     25.74    -28.92     24.00
    6.5371     23.76     25.74    -28.99     24.00
    6.5473     23.54     25.75    -29.21     24.00
    6.5575     23.39     25.75    -29.37     24.00
    6.5676     23.80     25.76    -28.96     24.00
    6.5778     23.03     25.76    -29.74     24.00
    6.5880     23.87     25.77    -28.90     24.00
    6.5981     23.22     25.78    -29.56     24.00
    6.6083     23.48     25.78    -29.31     24.00
    6.6185     23.84     25.79    -28.95     24.00
    6.6286     23.38     25.79    -29.42     24.00
    6.6388     23.24     25.80    -29.56     24.00
    6.6489     23.71     25.81    -29.10     24.00
    6.6591     23.88     25.81    -28.94     24.00
    6.6693     23.00     25.82    -29.82     24.00
    6.6794     24.11     25.82    -28.72     24.00
    6.6896     23.65     25.83    -29.18     24.00
    6.6998     22.68     25.84    -30.16     24.00
    6.7099     22.91     25.84    -29.94     24.00
    6.7201     23.46     25.85    -29.39     24.00
    6.7303     23.48     25.85    -29.38     24.00
    6.7404     23.27     25.86    -29.59     24.00
    6.7506     23.54     25.87    -29.33     24.00
    6.7608     23.03     25.87    -29.85     24.00
    6.7709     23.73     25.88    -29.15     24.00
    6.7811     23.13     25.89    -29.76     24.00
    6.7913     23.28     25.89    -29.62     24.00
    6.8014     23.63     25.90    -29.27     24.00
    6.8116     24.28     25.90    -28.63     24.00
    6.8217     23.24     25.91    -29.68     24.00
    6.8319     23.87     25.92    -29.05     24.00
    6.8421     23.49     25.92    -29.44     24.00
    6.8522     23.79     25.93    -29.15     24.00
    6.8624     24.15     25.94    -28.79     24.00
    6.8726     23.26     25.94    -29.69     24.00
    6.8827     23.88     25.95    -29.08     24.00
    6.8929     24.59     25.96    -28.37     24.00
    6.9031     23.37     25.96    -29.60     24.00
    6.9132     23.35     25.97    -29.63     24.00
    6.9234     23.87     25.98    -29.11     24.00
    6.9336     23.44     25.99    -29.55     24.00
    6.9437     23.48     25.99    -29.52     24.00
    6.9539     23.59     26.00    -29.41     24.00
    6.9640     23.45     26.01    -29.56     24.00
    6.9742     22.50     26.01    -30.52     24.00
    6.9844     24.38     26.02    -28.64     24.00
    6.9945     22.95     26.03    -30.08     24.00
    7.0047     23.50     26.03    -29.54     24.00
    7.0149     23.16     26.04    -29.89     24.00
    7.0250     23.27     26.05    -29.78     24.00
    7.0352     23.70     26.06    -29.36     24.00
    7.0454     23.66     26.06    -29.41     24.00
    7.0555     23.55     26.07    -29.52     24.00
    7.0657     24.23     26.08    -28.85     24.00
    7.0759     25.36     26.08    -27.73     24.00
    7.0860     23.25     26.09    -29.85     24.00
    7.0962     23.80     26.10    -29.30     24.00
    7.1064     24.45     26.11    -28.66     24.00
    7.1165     23.24     26.11    -29.88     24.00
    7.1267     24.49     26.12    -28.64     24.00
    7.1368     24.66     26.13    -28.47     24.00
    7.1470     23.99     26.14    -29.15     24.00
    7.1572     23.86     26.15    -29.29     24.00
    7.1673     24.10     26.15    -29.06     24.00
    7.1775     23.55     26.16    -29.61     24.00
    7.1877     24.44     26.17    -28.73     24.00
    7.1978     24.10     26.18    -29.08     24.00
    7.2080     24.03     26.18    -29.16     24.00
    7.2182     24.36     26.19    -28.84     24.00
    7.2283     24.57     26.20    -28.63     24.00
    7.2385     23.82     26.21    -29.39     24.00
    7.2487     24.69     26.22    -28.53     24.00
    7.2588     24.53     26.22    -28.70     24.00
    7.2690     24.21     26.23    -29.03     24.00
    7.2791     24.91     26.24    -28.33     24.00
    7.2893     25.04     26.25    -28.21     24.00
    7.2995     24.63     26.26    -28.63     24.00
    7.3096     24.65     26.26    -28.62     24.00
    7.3198     25.01     26.27    -28.27     24.00
    7.3300     24.94     26.28    -28.35     24.00
    7.3401     23.83     26.29    -29.46     24.00
    7.3503     24.60     26.30    -28.70     24.00
    7.3605     24.88     26.31    -28.43     24.00
    7.3706     24.87     26.32    -28.45     24.00
    7.3808     24.69     26.32    -28.64     24.00
    7.3910     24.95     26.33    -28.39     24.00
    7.4011     25.41     26.34    -27.93     24.00
    7.4113     24.66     26.35    -28.69     24.00
    7.4215     24.64     26.36    -28.72     24.00
    7.4316     25.29     26.37    -28.08     24.00
    7.4418     25.22     26.38    -28.16     24.00
    7.4519     24.52     26.38    -28.87     24.00
    7.4621     25.15     26.39    -28.25     24.00
    7.4723     25.16     26.40    -28.25     24.00
    7.4824     24.93     26.41    -28.49     24.00
    7.4926     24.65     26.42    -28.77     24.00
    7.5028     24.61     26.43    -28.82     24.00
    7.5129     25.54     26.44    -27.90     24.00
    7.5231     25.29     26.45    -28.16     24.00
    7.5333     25.12     26.46    -28.34     24.00
    7.5434     24.56     26.47    -28.91     24.00
    7.5536     25.85     26.48    -27.63     24.00
    7.5638     25.66     26.49    -27.83     24.00
    7.5739     24.85     26.49    -28.65     24.00
    7.5841     25.57     26.50    -27.94     24.00
    7.5942     25.43     26.51    -28.09     24.00
    7.6044     25.64     26.52    -27.89     24.00
    7.6146     25.55     26.53    -27.99     24.00
    7.6247     25.34     26.54    -28.21     24.00
    7.6349     24.35     26.55    -29.21     24.00
    7.6451     25.09     26.56    -28.48     24.00
    7.6552     25.05     26.57    -28.53     24.00
    7.6654     24.79     26.58    -28.80     24.00
    7.6756     24.75     26.59    -28.85     24.00
    7.6857     25.65     26.60    -27.95     24.00
    7.6959     25.07     26.61    -28.54     24.00
    7.7061     25.16     26.62    -28.46     24.00
    7.7162     26.49     26.63    -27.14     24.00
    7.7264     25.37     26.64    -28.28     24.00
    7.7365     25.02     26.65    -28.64     24.00
    7.7467     25.18     26.66    -28.49     24.00
    7.7569     25.74     26.67    -27.94     24.00
    7.7670     25.16     26.68    -28.53     24.00
    7.7772     25.45     26.69    -28.25     24.00
    7.7874     25.51     26.70    -28.20     24.00
    7.7975     25.55     26.71    -28.17     24.00
    7.8077     25.52     26.72    -28.21     24.00
    7.8179     25.09     26.73    -28.65     24.00
    7.8280     25.51     26.74    -28.24     24.00
    7.8382     26.44     26.76    -27.32     24.00
    7.8484     25.41     26.77    -28.36     24.00
    7.8585     26.47     26.78    -27.31     24.00
    7.8687     25.90     26.79    -27.89     24.00
    7.8789     25.69     26.80    -28.11     24.00
    7.8890     26.78     26.81    -27.03     24.00
    7.8992     26.09     26.82    -27.73     24.00
    7.9093     26.09     26.83    -27.75     24.00
    7.9195     26.36     26.84    -27.49     24.00
    7.9297     26.36     26.85    -27.50     24.00
    7.9398     26.88     26.87    -26.99     24.00
    7.9500     26.32     26.88    -27.56     24.00
    7.9602     26.48     26.89    -27.41     24.00
    7.9703     25.93     26.90    -27.97     24.00
    7.9805     26.30     26.91    -27.61     24.00
    7.9907     25.84     26.92    -28.09     24.00
    8.0008     26.12     26.93    -27.82     24.00
    8.0110     26.52     26.95    -27.43     24.00
    8.0212     26.60     26.96    -27.36     24.00
    8.0313     25.73     26.97    -28.24     24.00
    8.0415     26.74     26.98    -27.24     24.00
    8.0516     26.90     26.99    -27.10     24.00
    8.0618     25.13     27.00    -28.88     24.00
    8.0720     26.23     27.02    -27.79     24.00
    8.0821     25.52     27.03    -28.51     24.00
    8.0923     25.65     27.04    -28.39     24.00
    8.1025     25.96     27.05    -28.10     24.00
    8.1126     26.51     27.06    -27.56     24.00
    8.1228     26.03     27.08    -28.05     24.00
    8.1330     26.23     27.09    -27.86     24.00
    8.1431     26.55     27.10    -27.55     24.00
    8.1533     25.74     27.11    -28.38     24.00
    8.1635     26.30     27.13    -27.83     24.00
    8.1736     25.69     27.14    -28.45     24.00
    8.1838     26.00     27.15    -28.15     24.00
    8.1940     27.26     27.16    -26.91     24.00
    8.2041     26.62     27.18    -27.56     24.00
    8.2143     26.59     27.19    -27.60     24.00
    8.2244     27.26     27.20    -26.95     24.00
    8.2346     25.96     27.21    -28.26     24.00
    8.2448     27.32     27.23    -26.91     24.00
    8.2549     26.95     27.24    -27.29     24.00
    8.2651     27.27     27.25    -26.99     24.00
    8.2753     27.96     27.27    -26.31     24.00
    8.2854     27.30     27.28    -26.98     24.00
    8.2956     27.48     27.29    -26.82     24.00
    8.3058     27.37     27.31    -26.94     24.00
    8.3159     27.07     27.32    -27.25     24.00
    8.3261     26.74     27.33    -27.60     24.00
    8.3363     27.36     27.35    -26.99     24.00
    8.3464     27.27     27.36    -27.09     24.00
    8.3566     26.74     27.37    -27.64     24.00
    8.3667     27.13     27.39    -27.26     24.00
    8.3769     28.13     27.40    -26.28     24.00
    8.3871     27.32     27.42    -27.10     24.00
    8.3972     26.96     27.43    -27.47     24.00
    8.4074     27.51     27.44    -26.94     24.00
    8.4176     26.94     27.46    -27.52     24.00
    8.4277     26.91     27.47    -27.56     24.00
    8.4379     27.88     27.48    -26.61     24.00
    8.4481     27.38     27.50    -27.12     24.00
    8.4582     27.31     27.51    -27.21     24.00
    8.4684     28.52     27.53    -26.01     24.00
    8.4786     27.26     27.54    -27.29     24.00
    8.4887     27.29     27.56    -27.27     24.00
    8.4989     27.54     27.57    -27.04     24.00
    8.5091     28.07     27.59    -26.52     24.00
    8.5192     27.34     27.60    -27.26     24.00
    8.5294     28.24     27.62    -26.38     24.00
    8.5395     28.29     27.63    -26.34     24.00
    8.5497     27.63     27.64    -27.02     24.00
    8.5599     28.18     27.66    -26.48     24.00
    8.5700     27.89     27.67    -26.79     24.00
    8.5802     27.93     27.69    -26.76     24.00
    8.5904     27.55     27.71    -27.16     24.00
    8.6005     27.93     27.72    -26.79     24.00
    8.6107     27.25     27.74    -27.49     24.00
    8.6209     27.66     27.75    -27.09     24.00
    8.6310     28.26     27.77    -26.51     24.00
    8.6412     28.07     27.78    -26.72     24.00
    8.6514     27.07     27.80    -27.73     24.00
    8.6615     28.23     27.81    -26.59     24.00
    8.6717     27.87     27.83    -26.96     24.00
    8.6818     27.38     27.84    -27.47     24.00
    8.6920     27.87     27.86    -26.99     24.00
    8.7022     27.47     27.88    -27.41     24.00
    8.7123     28.19     27.89    -26.71     24.00
    8.7225     28.10     27.91    -26.81     24.00
    8.7327     28.10     27.92    -26.83     24.00
    8.7428     28.32     27.94    -26.62     24.00
    8.7530     28.07     27.96    -26.89     24.00
    8.7632     28.62     27.97    -26.36     24.00
    8.7733     28.23     27.99    -26.76     24.00
    8.7835     28.46     28.01    -26.55     24.00
    8.7937     28.48     28.02    -26.55     24.00
    8.8038     28.30     28.04    -26.74     24.00
    8.8140     28.46     28.06    -26.60     24.00
    8.8242     28.48     28.07    -26.60     24.00
    8.8343     28.80     28.09    -26.29     24.00
    8.8445     29.07     28.11    -26.04     24.00
    8.8546     27.93     28.12    -27.20     24.00
    8.8648     28.39     28.14    -26.76     24.00
    8.8750     28.71     28.16    -26.45     24.00
    8.8851     28.16     28.18    -27.02     24.00
    8.8953     28.23     28.19    -26.97     24.00
    8.9055     27.50     28.21    -27.71     24.00
    8.9156     27.92     28.23    -27.31     24.00
    8.9258     28.44     28.25    -26.81     24.00
    8.9360     28.97     28.26    -26.30     24.00
    8.9461     28.98     28.28    -26.30     24.00
    8.9563     28.84     28.30    -26.46     24.00
    8.9665     29.21     28.32    -26.11     24.00
    8.9766     28.24     28.33    -27.10     24.00
    8.9868     29.11     28.35    -26.25     24.00
    8.9969     29.03     28.37    -26.34     24.00
    9.0071     29.50     28.39    -25.89     24.00
    9.0173     29.43     28.41    -25.98     24.00
    9.0274     28.84     28.43    -26.59     24.00
    9.0376     28.62     28.44    -26.83     24.00
    9.0478     29.41     28.46    -26.06     24.00
    9.0579     30.03     28.48    -25.46     24.00
    9.0681     28.56     28.50    -26.94     24.00
    9.0783     28.47     28.52    -27.05     24.00
    9.0884     29.79     28.54    -25.75     24.00
    9.0986     29.53     28.56    -26.03     24.00
    9.1088     29.78     28.58    -25.80     24.00
    9.1189     28.84     28.60    -26.76     24.00
    9.1291     29.20     28.61    -26.42     24.00
    9.1393     29.26     28.63    -26.38     24.00
    9.1494     29.21     28.65    -26.45     24.00
    9.1596     29.76     28.67    -25.92     24.00
    9.1697     29.89     28.69    -25.81     24.00
    9.1799     29.48     28.71    -26.24     24.00
    9.1901     28.59     28.73    -27.15     24.00
    9.2002     29.90     28.75    -25.86     24.00
    9.2104     30.08     28.77    -25.70     24.00
    9.2206     28.73     28.79    -27.07     24.00
    9.2307     29.84     28.81    -25.98     24.00
    9.2409     28.93     28.83    -26.91     24.00
    9.2511     28.31     28.85    -27.55     24.00
    9.2612     29.46     28.87    -26.42     24.00
    9.2714     29.58     28.89    -26.32     24.00
    9.2816     29.38     28.91    -26.54     24.00
    9.2917     29.79     28.93    -26.15     24.00
    9.3019     29.81     28.95    -26.15     24.00
    9.3120     29.90     28.97    -26.08     24.00
    9.3222     29.80     29.00    -26.20     24.00
    9.3324     30.21     29.02    -25.81     24.00
    9.3425     29.67     29.04    -26.37     24.00
    9.3527     30.17     29.06    -25.89     24.00
    9.3629     30.33     29.08    -25.75     24.00
    9.3730     29.83     29.10    -26.28     24.00
    9.3832     30.35     29.12    -25.78     24.00
    9.3934     29.89     29.14    -26.26     24.00
    9.4035     29.98     29.17    -26.19     24.00
    9.4137     30.16     29.19    -26.03     24.00
    9.4239     29.96     29.21    -26.25     24.00
    9.4340     29.94     29.23    -26.30     24.00
    9.4442     30.06     29.25    -26.20     24.00
    9.4544     30.59     29.28    -25.69     24.00
    9.4645     29.86     29.30    -26.44     24.00
    9.4747     29.01     29.32    -27.31     24.00
    9.4848     30.97     29.34    -25.38     24.00
    9.4950     30.65     29.36    -25.72     24.00
    9.5052     30.43     29.39    -25.96     24.00
    9.5153     30.34     29.41    -26.07     24.00
    9.5255     29.63     29.43    -26.81     24.00
    9.5357     30.04     29.46    -26.42     24.00
    9.5458     31.09     29.48    -25.39     24.00
    9.5560     30.41     29.50    -26.10     24.00
    9.5662     29.95     29.52    -26.58     24.00
    9.5763     31.29     29.55    -25.26     24.00
    9.5865     29.50     29.57    -27.07     24.00
    9.5967     29.48     29.59    -27.12     24.00
    9.6068     30.23     29.62    -26.39     24.00
    9.6170     30.16     29.64    -26.49     24.00
    9.6271     30.21     29.66    -26.46     24.00
    9.6373     30.63     29.69    -26.06     24.00
    9.6475     30.00     29.71    -26.72     24.00
    9.6576     30.46     29.74    -26.28     24.00
    9.6678     30.55     29.76    -26.21     24.00
    9.6780     30.24     29.79    -26.55     24.00
    9.6881     30.63     29.81    -26.18     24.00
    9.6983     30.20     29.83    -26.64     24.00
    9.7085     31.86     29.86    -25.00     24.00
    9.7186     30.43     29.88    -26.46     24.00
    9.7288     30.32     29.91    -26.59     24.00
    9.7390     30.07     29.93    -26.87     24.00
    9.7491     30.55     29.96    -26.41     24.00
    9.7593     31.02     29.98    -25.97     24.00
    9.7694     30.39     30.01    -26.62     24.00
    9.7796     31.27     30.03    -25.77     24.00
    9.7898     30.82     30.06    -26.24     24.00
    9.7999     30.80     30.08    -26.29     24.00
    9.8101     30.05     30.11    -27.06     24.00
    9.8203     30.42     30.13    -26.72     24.00
    9.8304     30.76     30.16    -26.40     24.00
    9.8406     30.62     30.19    -26.57     24.00
    9.8508     31.21     30.21    -26.01     24.00
    9.8609     30.97     30.24    -26.27     24.00
    9.8711     31.57     30.26    -25.70     24.00
    9.8813     32.09     30.29    -25.20     24.00
    9.8914     31.38     30.32    -25.94     24.00
    9.9016     31.27     30.34    -26.08     24.00
    9.9118     30.68     30.37    -26.69     24.00
    9.9219     31.32     30.40    -26.08     24.00
    9.9321     30.70     30.42    -26.73     24.00
    9.9422     31.31     30.45    -26.14     24.00
    9.9524     31.22     30.48    -26.26     24.00
    9.9626     32.29     30.50    -25.22     24.00
    9.9727     31.29     30.53    -26.24     24.00
    9.9829     31.50     30.56    -26.06     24.00
    9.9931     31.18     30.59    -26.41     24.00
   10.0032     30.86     30.61    -26.76     24.00
   10.0134     30.99     30.64    -26.65     24.00
   10.0236     31.99     30.67    -25.68     24.00
   10.0337     32.45     30.70    -25.25     24.00
   10.0439     30.82     30.72    -26.91     24.00
   10.0541     31.79     30.75    -25.97     24.00
   10.0642     31.60     30.78    -26.18     24.00
   10.0744     31.41     30.81    -26.40     24.00
   10.0845     31.35     30.84    -26.49     24.00
   10.0947     31.80     30.87    -26.07     24.00
   10.1049     32.27     30.89    -25.63     24.00
   10.1150     31.60     30.92    -26.33     24.00
   10.1252     32.03     30.95    -25.93     24.00
   10.1354     32.32     30.98    -25.67     24.00
   10.1455     32.04     31.01    -25.97     24.00
   10.1557     30.79     31.04    -27.25     24.00
   10.1659     31.92     31.07    -26.15     24.00
   10.1760     33.16     31.10    -24.94     24.00
   10.1862     32.05     31.13    -26.08     24.00
   10.1964     32.90     31.16    -25.26     24.00
   10.2065     32.18     31.19    -26.01     24.00
   10.2167     31.98     31.22    -26.24     24.00
   10.2269     32.79     31.25    -25.46     24.00
   10.2370     32.16     31.28    -26.12     24.00
   10.2472     32.29     31.31    -26.02     24.00
   10.2573     32.05     31.34    -26.29     24.00
   10.2675     33.07     31.37    -25.30     24.00
   10.2777     32.11     31.40    -26.29     24.00
   10.2878     32.77     31.43    -25.66     24.00
   10.2980     32.67     31.46    -25.79     24.00
   10.3082     32.46     31.49    -26.04     24.00
   10.3183     31.63     31.52    -26.90     24.00
   10.3285     32.35     31.55    -26.21     24.00
   10.3387     32.07     31.58    -26.52     24.00
   10.3488     32.00     31.62    -26.62     24.00
   10.3590     32.28     31.65    -26.37     24.00
   10.3692     32.80     31.68    -25.88     24.00
   10.3793     32.65     31.71    -26.06     24.00
   10.3895     32.08     31.74    -26.67     24.00
   10.3996     32.42     31.77    -26.36     24.00
   10.4098     32.20     31.81    -26.61     24.00
   10.4200     31.44     31.84    -27.40     24.00
   10.4301     32.05     31.87    -26.83     24.00
   10.4403     31.91     31.90    -27.00     24.00
   10.4505     31.70     31.94    -27.24     24.00
   10.4606     32.89     31.97    -26.08     24.00
   10.4708     33.10     32.00    -25.91     24.00
   10.4810     31.92     32.04    -27.12     24.00
   10.4911     32.48     32.07    -26.59     24.00
   10.5013     33.42     32.10    -25.69     24.00
   10.5115     33.02     32.13    -26.12     24.00
   10.5216     33.40     32.17    -25.77     24.00
   10.5318     33.27     32.20    -25.94     24.00
   10.5420     33.23     32.24    -26.01     24.00
   10.5521     33.22     32.27    -26.05     24.00
   10.5623     33.19     32.30    -26.12     24.00
   10.5724     33.42     32.34    -25.92     24.00
   10.5826     32.14     32.37    -27.24     24.00
   10.5928     33.18     32.41    -26.23     24.00
   10.6029     32.15     32.44    -27.29     24.00
   10.6131     32.99     32.48    -26.49     24.00
   10.6233     32.97     32.51    -26.54     24.00
   10.6334     31.87     32.54    -27.68     24.00
   10.6436     32.66     32.58    -26.92     24.00
   10.6538     33.16     32.61    -26.46     24.00
   10.6639     32.84     32.65    -26.81     24.00
   10.6741     33.76     32.69    -25.93     24.00
   10.6843     33.55     32.72    -26.17     24.00
   10.6944     34.71     32.76    -25.05     24.00
   10.7046     32.45     32.79    -27.35     24.00
   10.7147     32.99     32.83    -26.84     24.00
   10.7249     33.38     32.86    -26.49     24.00
   10.7351     32.88     32.90    -27.02     24.00
   10.7452     33.56     32.94    -26.38     24.00
   10.7554     33.63     32.97    -26.35     24.00
   10.7656     33.23     33.01    -26.78     24.00
   10.7757     33.70     33.05    -26.35     24.00
   10.7859     34.17     33.08    -25.92     24.00
   10.7961     32.98     33.12    -27.14     24.00
   10.8062     33.82     33.16    -26.34     24.00
   10.8164     33.24     33.19    -26.96     24.00
   10.8266     33.73     33.23    -26.51     24.00
   10.8367     33.90     33.27    -26.37     24.00
   10.8469     32.12     33.31    -28.19     24.00
   10.8571     33.73     33.34    -26.62     24.00
   10.8672     33.02     33.38    -27.37     24.00
   10.8774     34.77     33.42    -25.65     24.00
   10.8875     33.72     33.46    -26.74     24.00
   10.8977     34.59     33.50    -25.91     24.00
   10.9079     35.01     33.53    -25.53     24.00
   10.9180     33.70     33.57    -26.88     24.00
   10.9282     34.14     33.61    -26.48     24.00
   10.9384     34.09     33.65    -26.56     24.00
   10.9485     33.96     33.69    -26.73     24.00
   10.9587     34.52     33.73    -26.21     24.00
   10.9689     34.77     33.77    -26.00     24.00
   10.9790     33.55     33.81    -27.26     24.00
   10.9892     33.98     33.85    -26.87     24.00
   10.9994     34.01     33.89    -26.88     24.00
   11.0095     33.53     33.93    -27.40     24.00
   11.0197     34.20     33.96    -26.77     24.00
   11.0298     35.13     34.00    -25.88     24.00
   11.0400     34.57     34.04    -26.48     24.00
   11.0502     33.85     34.09    -27.24     24.00
   11.0603     34.99     34.13    -26.14     24.00
   11.0705     34.63     34.17    -26.54     24.00
   11.0807     33.90     34.21    -27.31     24.00
   11.0908     34.76     34.25    -26.49     24.00
   11.1010     34.30     34.29    -26.99     24.00
   11.1112     34.80     34.33    -26.53     24.00
   11.1213     34.25     34.37    -27.12     24.00
   11.1315     33.63     34.41    -27.79     24.00
   11.1417     34.98     34.45    -26.48     24.00
   11.1518     35.43     34.50    -26.07     24.00
   11.1620     34.46     34.54    -27.08     24.00
   11.1722     34.43     34.58    -27.15     24.00
   11.1823     34.30     34.62    -27.33     24.00
   11.1925     36.17     34.66    -25.50     24.00
   11.2026     35.14     34.71    -26.57     24.00
   11.2128     35.09     34.75    -26.66     24.00
   11.2230     34.58     34.79    -27.21     24.00
   11.2331     34.91     34.83    -26.93     24.00
   11.2433     34.93     34.88    -26.95     24.00
   11.2535     34.51     34.92    -27.41     24.00
   11.2636     34.41     34.96    -27.56     24.00
   11.2738     35.01     35.01    -27.00     24.00
   11.2840     33.82     35.05    -28.23     24.00
   11.2941     35.23     35.09    -26.87     24.00
   11.3043     35.55     35.14    -26.59     24.00
   11.3145     34.27     35.18    -27.91     24.00
   11.3246     35.90     35.22    -26.33     24.00
   11.3348     35.14     35.27    -27.13     24.00
   11.3449     36.02     35.31    -26.30     24.00
   11.3551     36.07     35.36    -26.29     24.00
   11.3653     35.73     35.40    -26.68     24.00
   11.3754     35.77     35.45    -26.68     24.00
   11.3856     35.71     35.49    -26.79     24.00
   11.3958     36.60     35.54    -25.94     24.00
   11.4059     35.30     35.58    -27.29     24.00
   11.4161     35.38     35.63    -27.25     24.00
   11.4263     35.85     35.67    -26.83     24.00
   11.4364     34.99     35.72    -27.73     24.00
   11.4466     35.45     35.76    -27.32     24.00
   11.4568     35.79     35.81    -27.02     24.00
   11.4669     36.60     35.86    -26.26     24.00
   11.4771     35.62     35.90    -27.29     24.00
   11.4873     35.86     35.95    -27.09     24.00
   11.4974     35.38     36.00    -27.62     24.00
   11.5076     35.77     36.04    -27.28     24.00
   11.5177     36.01     36.09    -27.08     24.00
   11.5279     35.52     36.14    -27.62     24.00
   11.5381     35.59     36.18    -27.60     24.00
   11.5482     35.86     36.23    -27.37     24.00
   11.5584     35.51     36.28    -27.77     24.00
   11.5686     36.65     36.32    -26.68     24.00
   11.5787     36.24     36.37    -27.14     24.00
   11.5889     36.02     36.42    -27.40     24.00
   11.5991     36.25     36.47    -27.22     24.00
   11.6092     36.31     36.52    -27.21     24.00
   11.6194     36.82     36.56    -26.75     24.00
   11.6296     36.73     36.61    -26.89     24.00
   11.6397     36.34     36.66    -27.33     24.00
   11.6499     36.31     36.71    -27.40     24.00
   11.6600     36.93     36.76    -26.83     24.00
   11.6702     36.45     36.81    -27.36     24.00
   11.6804     36.32     36.86    -27.54     24.00
   11.6905     37.37     36.91    -26.54     24.00
   11.7007     36.32     36.96    -27.64     24.00
   11.7109     37.22     37.01    -26.79     24.00
   11.7210     36.51     37.06    -27.55     24.00
   11.7312     37.05     37.11    -27.06     24.00
   11.7414     37.56     37.16    -26.60     24.00
   11.7515     36.11     37.21    -28.10     24.00
   11.7617     37.91     37.26    -26.35     24.00
   11.7719     37.30     37.31    -27.01     24.00
   11.7820     36.63     37.36    -27.73     24.00
   11.7922     36.71     37.41    -27.70     24.00
   11.8023     36.86     37.46    -27.60     24.00
   11.8125     36.70     37.51    -27.81     24.00
   11.8227     37.46     37.56    -27.11     24.00
   11.8328     36.47     37.61    -28.15     24.00
   11.8430     36.20     37.66    -28.47     24.00
   11.8532     38.15     37.72    -26.57     24.00
   11.8633     37.72     37.77    -27.05     24.00
   11.8735     37.02     37.82    -27.80     24.00
   11.8837     37.53     37.87    -27.35     24.00
   11.8938     37.80     37.92    -27.13     24.00
   11.9040     37.82     37.98    -27.16     24.00
   11.9142     37.74     38.03    -27.29     24.00
   11.9243     37.00     38.08    -28.09     24.00
   11.9345     38.48     38.14    -26.66     24.00
   11.9447     38.10     38.19    -27.09     24.00
   11.9548     37.36     38.24    -27.89     24.00
   11.9650     37.36     38.30    -27.94     24.00
   11.9751     37.94     38.35    -27.41     24.00
   11.9853     37.50     38.40    -27.91     24.00
   11.9955     38.16     38.46    -27.30     24.00
   12.0056     37.69     38.51    -27.82     24.00
   12.0158     39.04     38.56    -26.53     24.00
   12.0260     38.30     38.62    -27.32     24.00
   12.0361     39.24     38.67    -26.44     24.00
   12.0463     38.35     38.73    -27.38     24.00
   12.0565     38.38     38.78    -27.41     24.00
   12.0666     38.02     38.84    -27.82     24.00
   12.0768     38.71     38.89    -27.19     24.00
   12.0870     38.13     38.95    -27.82     24.00
   12.0971     38.82     39.00    -27.19     24.00
   12.1073     38.48     39.06    -27.58     24.00
   12.1174     37.73     39.11    -28.39     24.00
   12.1276     38.36     39.17    -27.81     24.00
   12.1378     38.05     39.23    -28.18     24.00
   12.1479     37.64     39.28    -28.65     24.00
   12.1581     39.02     39.34    -27.32     24.00
   12.1683     38.48     39.40    -27.92     24.00
   12.1784     38.27     39.45    -28.19     24.00
   12.1886     39.02     39.51    -27.49     24.00
   12.1988     38.98     39.57    -27.59     24.00
   12.2089     39.84     39.62    -26.79     24.00
   12.2191     39.43     39.68    -27.25     24.00
   12.2293     39.67     39.74    -27.07     24.00
   12.2394     39.17     39.79    -27.63     24.00
   12.2496     38.62     39.85    -28.24     24.00
   12.2598     40.10     39.91    -26.81     24.00
   12.2699     39.40     39.97    -27.57     24.00
   12.2801     40.04     40.03    -26.99     24.00
   12.2902     39.29     40.09    -27.80     24.00
   12.3004     38.60     40.14    -28.55     24.00
   12.3106     40.49     40.20    -26.72     24.00
   12.3207     38.87     40.26    -28.40     24.00
   12.3309     39.76     40.32    -27.56     24.00
   12.3411     39.36     40.38    -28.02     24.00
   12.3512     39.04     40.44    -28.40     24.00
   12.3614     39.63     40.50    -27.87     24.00
   12.3716     39.30     40.56    -28.26     24.00
   12.3817     40.04     40.62    -27.58     24.00
   12.3919     39.55     40.68    -28.13     24.00
   12.4021     40.97     40.74    -26.77     24.00
   12.4122     40.16     40.80    -27.64     24.00
   12.4224     39.75     40.86    -28.11     24.00
   12.4325     40.18     40.92    -27.74     24.00
   12.4427     41.15     40.98    -26.83     24.00
   12.4529     41.07     41.04    -26.97     24.00
   12.4630     39.45     41.10    -28.65     24.00
   12.4732     39.93     41.16    -28.24     24.00
   12.4834     40.85     41.22    -27.38     24.00
   12.4935     40.98     41.29    -27.31     24.00
   12.5037     40.15     41.35    -28.20     24.00
   12.5139     40.12     41.41    -28.29     24.00
   12.5240     40.96     41.47    -27.51     24.00
   12.5342     40.69     41.53    -27.85     24.00
   12.5444     40.48     41.60    -28.12     24.00
   12.5545     41.07     41.66    -27.59     24.00
   12.5647     40.79     41.72    -27.93     24.00
   12.5749     40.19     41.78    -28.60     24.00
   12.5850     41.60     41.85    -27.25     24.00
   12.5952     40.51     41.91    -28.40     24.00
   12.6053     40.87     41.97    -28.11     24.00
   12.6155     40.94     42.04    -28.10     24.00
   12.6257     40.39     42.10    -28.71     24.00
   12.6358     41.52     42.16    -27.65     24.00
   12.6460     41.98     42.23    -27.25     24.00
   12.6562     41.00     42.29    -28.29     24.00
   12.6663     41.54     42.35    -27.82     24.00
   12.6765     41.68     42.42    -27.74     24.00
   12.6867     41.80     42.48    -27.69     24.00
   12.6968     41.07     42.55    -28.48     24.00
   12.7070     41.24     42.61    -28.38     24.00
   12.7172     41.66     42.68    -28.02     24.00
   12.7273     41.95     42.74    -27.80     24.00
   12.7375     42.10     42.81    -27.71     24.00
   12.7476     42.63     42.87    -27.25     24.00
   12.7578     41.98     42.94    -27.96     24.00
   12.7680     42.01     43.00    -28.00     24.00
   12.7781     43.15     43.07    -26.92     24.00
   12.7883     41.85     43.14    -28.29     24.00
   12.7985     42.52     43.20    -27.69     24.00
   12.8086     42.68     43.27    -27.59     24.00
   12.8188     42.20     43.34    -28.14     24.00
   12.8290     42.71     43.40    -27.70     24.00
   12.8391     42.63     43.47    -27.84     24.00
   12.8493     41.99     43.54    -28.55     24.00
   12.8595     42.01     43.60    -28.60     24.00
   12.8696     42.63     43.67    -28.04     24.00
   12.8798     41.35     43.74    -29.39     24.00
   12.8900     41.88     43.81    -28.93     24.00
   12.9001     41.97     43.87    -28.91     24.00
   12.9103     43.87     43.94    -27.08     24.00
   12.9204     42.97     44.01    -28.04     24.00
   12.9306     42.52     44.08    -28.56     24.00
   12.9408     43.70     44.15    -27.45     24.00
   12.9509     43.65     44.21    -27.57     24.00
   12.9611     43.18     44.28    -28.11     24.00
   12.9713     43.12     44.35    -28.24     24.00
   12.9814     44.33     44.42    -27.09     24.00
   12.9916     43.73     44.49    -27.76     24.00
   13.0018     43.54     44.56    -28.02     24.00
   13.0119     43.13     44.63    -28.50     24.00
   13.0221     43.54     44.70    -28.16     24.00
   13.0323     42.82     44.77    -28.95     24.00
   13.0424     43.85     44.84    -27.99     24.00
   13.0526     43.60     44.91    -28.31     24.00
   13.0627     43.71     44.98    -28.27     24.00
   13.0729     43.55     45.05    -28.50     24.00
   13.0831     44.32     45.12    -27.80     24.00
   13.0932     43.92     45.19    -28.27     24.00
   13.1034     45.31     45.26    -26.95     24.00
   13.1136     44.27     45.33    -28.07     24.00
   13.1237     43.17     45.40    -29.24     24.00
   13.1339     44.80     45.47    -27.68     24.00
   13.1441     44.23     45.55    -28.32     24.00
   13.1542     45.19     45.62    -27.43     24.00
   13.1644     44.52     45.69    -28.17     24.00
   13.1746     43.92     45.76    -28.85     24.00
   13.1847     45.57     45.83    -27.27     24.00
   13.1949     44.65     45.91    -28.26     24.00
   13.2051     44.42     45.98    -28.56     24.00
   13.2152     46.01     46.05    -27.04     24.00
   13.2254     45.31     46.12    -27.82     24.00
   13.2355     44.48     46.20    -28.72     24.00
   13.2457     45.09     46.27    -28.18     24.00
   13.2559     45.71     46.34    -27.64     24.00
   13.2660     45.52     46.41    -27.90     24.00
   13.2762     45.92     46.49    -27.57     24.00
   13.2864     45.18     46.56    -28.39     24.00
   13.2965     46.52     46.64    -27.12     24.00
   13.3067     44.73     46.71    -28.98     24.00
   13.3169     45.15     46.78    -28.64     24.00
   13.3270     45.04     46.86    -28.82     24.00
   13.3372     46.24     46.93    -27.70     24.00
   13.3474     46.26     47.01    -27.75     24.00
   13.3575     46.83     47.08    -27.26     24.00
   13.3677     46.16     47.16    -28.00     24.00
   13.3778     46.68     47.23    -27.55     24.00
   13.3880     45.78     47.31    -28.53     24.00
   13.3982     45.18     47.38    -29.21     24.00
   13.4083     46.65     47.46    -27.81     24.00
   13.4185     47.28     47.53    -27.26     24.00
   13.4287     45.74     47.61    -28.87     24.00
   13.4388     46.91     47.68    -27.78     24.00
   13.4490     47.51     47.76    -27.25     24.00
   13.4592     46.79     47.84    -28.05     24.00
   13.4693     46.73     47.91    -28.19     24.00
   13.4795     47.18     47.99    -27.81     24.00
   13.4897     46.80     48.07    -28.27     24.00
   13.4998     47.32     48.14    -27.83     24.00
   13.5100     47.15     48.22    -28.07     24.00
   13.5201     47.48     48.30    -27.82     24.00
   13.5303     48.02     48.37    -27.36     24.00
   13.5405     48.91     48.45    -26.54     24.00
   13.5506     48.40     48.53    -27.13     24.00
   13.5608     47.64     48.61    -27.97     24.00
   13.5710     46.73     48.68    -28.96     24.00
   13.5811     47.24     48.76    -28.53     24.00
   13.5913     47.21     48.84    -28.63     24.00
   13.6015     47.35     48.92    -28.57     24.00
   13.6116     49.34     49.00    -26.66     24.00
   13.6218     48.50     49.07    -27.58     24.00
   13.6320     47.71     49.15    -28.45     24.00
   13.6421     48.26     49.23    -27.98     24.00
   13.6523     47.23     49.31    -29.09     24.00
   13.6625     48.64     49.39    -27.75     24.00
   13.6726     48.85     49.47    -27.62     24.00
   13.6828     48.10     49.55    -28.45     24.00
   13.6929     47.57     49.63    -29.06     24.00
   13.7031     49.35     49.71    -27.36     24.00
   13.7133     49.62     49.79    -27.17     24.00
   13.7234     48.95     49.87    -27.92     24.00
   13.7336     49.82     49.95    -27.13     24.00
   13.7438     49.37     50.03    -27.66     24.00
   13.7539     48.51     50.11    -28.60     24.00
   13.7641     49.81     50.19    -27.38     24.00
   13.7743     48.74     50.27    -28.53     24.00
   13.7844     49.31     50.35    -28.05     24.00
   13.7946     49.27     50.43    -28.17     24.00
   13.8048     49.27     50.51    -28.25     24.00
   13.8149     49.13     50.59    -28.47     24.00
   13.8251     49.57     50.68    -28.11     24.00
   13.8352     50.51     50.76    -27.25     24.00
   13.8454     50.18     50.84    -27.66     24.00
   13.8556     49.60     50.92    -28.33     24.00
   13.8657     50.20     51.00    -27.81     24.00
   13.8759     49.83     51.09    -28.26     24.00
   13.8861     51.10     51.17    -27.07     24.00
   13.8962     50.46     51.25    -27.79     24.00
   13.9064     51.31     51.33    -27.03     24.00
   13.9166     51.69     51.42    -26.73     24.00
   13.9267     50.33     51.50    -28.17     24.00
   13.9369     50.12     51.58    -28.47     24.00
   13.9471     50.95     51.67    -27.72     24.00
   13.9572     50.49     51.75    -28.26     24.00
   13.9674     51.71     51.83    -27.13     24.00
   13.9776     50.93     51.92    -27.99     24.00
   13.9877     51.35     52.00    -27.65     24.00
   13.9979     51.88     52.08    -27.21     24.00
   14.0080     51.63     52.17    -27.54     24.00
   14.0182     51.71     52.25    -27.55     24.00
   14.0284     51.89     52.34    -27.45     24.00
   14.0385     52.09     52.42    -27.34     24.00
   14.0487     52.20     52.51    -27.31     24.00
   14.0589     52.15     52.59    -27.45     24.00
   14.0690     52.04     52.68    -27.64     24.00
   14.0792     50.68     52.76    -29.09     24.00
   14.0894     52.00     52.85    -27.85     24.00
   14.0995     52.82     52.93    -27.12     24.00
   14.1097     52.83     53.02    -27.19     24.00
   14.1199     51.85     53.11    -28.26     24.00
   14.1300     52.85     53.19    -27.35     24.00
   14.1402     52.57     53.28    -27.71     24.00
   14.1503     52.10     53.36    -28.27     24.00
   14.1605     52.85     53.45    -27.60     24.00
   14.1707     53.48     53.54    -27.06     24.00
   14.1808     53.43     53.62    -27.20     24.00
   14.1910     53.65     53.71    -27.06     24.00
   14.2012     53.79     53.80    -27.01     24.00
   14.2113     54.18     53.89    -26.71     24.00
   14.2215     53.34     53.97    -27.64     24.00
   14.2317     53.74     54.06    -27.33     24.00
   14.2418     53.65     54.15    -27.50     24.00
   14.2520     55.52     54.24    -25.72     24.00
   14.2622     53.54     54.33    -27.79     24.00
   14.2723     55.15     54.41    -26.27     24.00
   14.2825     55.43     54.50    -26.08     24.00
   14.2927     54.51     54.59    -27.08     24.00
   14.3028     54.79     54.68    -26.89     24.00
   14.3130     54.81     54.77    -26.96     24.00
   14.3231     54.89     54.86    -26.97     24.00
   14.3333     55.60     54.95    -26.35     24.00
   14.3435     55.87     55.04    -26.17     24.00
   14.3536     54.85     55.13    -27.28     24.00
   14.3638     54.70     55.22    -27.52     24.00
   14.3740     55.37     55.31    -26.94     24.00
   14.3841     56.10     55.40    -26.30     24.00
   14.3943     56.27     55.49    -26.22     24.00
   14.4045     54.43     55.58    -28.15     24.00
   14.4146     56.18     55.67    -26.49     24.00
   14.4248     55.93     55.76    -26.83     24.00
   14.4350     55.75     55.85    -27.11     24.00
   14.4451     57.34     55.94    -25.61     24.00
   14.4553     56.12     56.04    -26.92     24.00
   14.4654     55.37     56.13    -27.76     24.00
   14.4756     56.62     56.22    -26.60     24.00
   14.4858     56.59     56.31    -26.73     24.00
   14.4959     57.07     56.40    -26.34     24.00
   14.5061     57.52     56.50    -25.98     24.00
   14.5163     56.01     56.59    -27.59     24.00
   14.5264     56.84     56.68    -26.85     24.00
   14.5366     57.26     56.78    -26.52     24.00
   14.5468     56.07     56.87    -27.81     24.00
   14.5569     57.87     56.97    -26.10     24.00
   14.5671     56.44     57.06    -27.62     24.00
   14.5773     57.30     57.16    -26.86     24.00
   14.5874     58.52     57.25    -25.73     24.00
   14.5976     57.74     57.34    -26.61     24.00
   14.6078     57.56     57.44    -26.88     24.00
   14.6179     59.25     57.54    -25.29     24.00
   14.6281     58.21     57.63    -26.43     24.00
   14.6382     57.90     57.73    -26.83     24.00
   14.6484     59.05     57.82    -25.78     24.00
   14.6586     58.30     57.92    -26.62     24.00
   14.6687     58.87     58.02    -26.15     24.00
   14.6789     60.60     58.11    -24.52     24.00
   14.6891     59.02     58.21    -26.20     24.00
   14.6992     59.07     58.31    -26.24     24.00
   14.7094     59.95     58.41    -25.46     24.00
   14.7196     59.43     58.51    -26.08     24.00
   14.7297     59.34     58.60    -26.27     24.00
   14.7399     60.55     58.70    -25.16     24.00
   14.7501     60.18     58.80    -25.63     24.00
   14.7602     59.87     58.90    -26.04     24.00
   14.7704     61.69     59.00    -24.32     24.00
   14.7805     60.97     59.10    -25.14     24.00
   14.7907     60.30     59.20    -25.91     24.00
   14.8009     60.99     59.31    -25.32     24.00
   14.8110     60.79     59.41    -25.62     24.00
   14.8212     59.84     59.51    -26.67     24.00
   14.8314     60.89     59.61    -25.73     24.00
   14.8415     60.57     59.71    -26.15     24.00
   14.8517     59.96     59.82    -26.86     24.00
   14.8619     62.07     59.92    -24.85     24.00
   14.8720     61.34     60.02    -25.69     24.00
   14.8822     61.21     60.13    -25.92     24.00
   14.8924     62.13     60.23    -25.11     24.00
   14.9025     63.16     60.34    -24.18     24.00
   14.9127     61.34     60.44    -26.11     24.00
   14.9229     63.04     60.55    -24.51     24.00
   14.9330     61.34     60.65    -26.32     24.00
   14.9432     62.52     60.76    -25.25     24.00
   14.9533     63.30     60.87    -24.57     24.00
   14.9635     62.80     60.98    -25.18     24.00
   14.9737     62.27     61.09    -25.82     24.00
   14.9838     63.13     61.19    -25.07     24.00
   14.9940     63.25     61.30    -25.06     24.00
   15.0042     62.84     61.41    -25.58     24.00
   15.0143     63.32     61.52    -25.21     24.00
   15.0245     62.72     61.63    -25.92     24.00
   15.0347     63.59     61.75    -25.16     24.00
   15.0448     63.82     61.86    -25.04     24.00
   15.0550     63.88     61.97    -25.09     24.00
   15.0652     63.82     62.08    -25.27     24.00
   15.0753     63.30     62.20    -25.90     24.00
   15.0855     64.70     62.31    -24.61     24.00
   15.0956     64.76     62.42    -24.67     24.00
   15.1058     64.16     62.54    -25.38     24.00
   15.1160     64.77     62.66    -24.89     24.00
   15.1261     64.99     62.77    -24.79     24.00
   15.1363     64.93     62.89    -24.96     24.00
   15.1465     64.99     63.01    -25.02     24.00
   15.1566     65.67     63.13    -24.46     24.00
   15.1668     65.37     63.25    -24.88     24.00
   15.1770     65.55     63.37    -24.82     24.00
   15.1871     65.13     63.49    -25.36     24.00
   15.1973     65.07     63.61    -25.54     24.00
   15.2075     65.91     63.73    -24.82     24.00
   15.2176     65.93     63.85    -24.93     24.00
   15.2278     66.17     63.98    -24.81     24.00
   15.2380     66.90     64.10    -24.20     24.00
   15.2481     66.91     64.22    -24.32     24.00
   15.2583     66.52     64.35    -24.83     24.00
   15.2684     66.38     64.48    -25.10     24.00
   15.2786     65.35     64.60    -26.26     24.00
   15.2888     67.45     64.73    -24.29     24.00
   15.2989     67.38     64.86    -24.49     24.00
   15.3091     67.15     64.99    -24.85     24.00
   15.3193     67.45     65.12    -24.68     24.00
   15.3294     67.68     65.25    -24.58     24.00
   15.3396     68.68     65.39    -23.71     24.00
   15.3498     68.25     65.52    -24.27     24.00
   15.3599     68.45     65.65    -24.21     24.00
   15.3701     66.98     65.79    -25.81     24.00
   15.3803     68.18     65.93    -24.75     24.00
   15.3904     68.61     66.06    -24.46     24.00
   15.4006     69.18     66.20    -24.03     24.00
   15.4107     69.38     66.34    -23.96     24.00
   15.4209     68.18     66.48    -25.30     24.00
   15.4311     68.62     66.62    -25.01     24.00
   15.4412     70.81     66.76    -22.96     24.00
   15.4514     70.27     66.91    -23.64     24.00
   15.4616     70.02     67.05    -24.03     24.00
   15.4717     70.48     67.19    -23.72     24.00
   15.4819     69.51     67.34    -24.84     24.00
   15.4921     69.92     67.49    -24.57     24.00
   15.5022     71.37     67.64    -23.27     24.00
   15.5124     71.21     67.79    -23.58     24.00
   15.5226     73.10     67.94    -21.84     24.00
   15.5327     70.87     68.09    -24.22     24.00
   15.5429     70.09     68.24    -25.16     24.00
   15.5530     71.37     68.40    -24.03     24.00
   15.5632     70.33     68.55    -25.23     24.00
   15.5734     70.13     68.71    -25.58     24.00
   15.5835     70.86     68.86    -25.01     24.00
   15.5937     72.59     69.02    -23.44     24.00
   15.6039     73.04     69.18    -23.15     24.00
   15.6140     71.86     69.34    -24.49     24.00
   15.6242     72.32     69.51    -24.19     24.00
   15.6344     71.70     69.67    -24.98     24.00
   15.6445     71.87     69.84    -24.97     24.00
   15.6547     73.73     70.00    -23.28     24.00
   15.6649     72.76     70.17    -24.41     24.00
   15.6750     72.78     70.34    -24.56     24.00
   15.6852     73.54     70.51    -23.97     24.00
   15.6954     74.27     70.68    -23.42     24.00
   15.7055     75.38     70.85    -22.48     24.00
   15.7157     72.29     71.03    -25.74     24.00
   15.7258     72.63     71.20    -25.58     24.00
   15.7360     73.86     71.38    -24.52     24.00
   15.7462     73.99     71.56    -24.57     24.00
   15.7563     74.07     71.74    -24.67     24.00
   15.7665     74.54     71.92    -24.38     24.00
   15.7767     74.56     72.10    -24.54     24.00
   15.7868     75.18     72.28    -24.11     24.00
   15.7970     75.34     72.47    -24.13     24.00
   15.8072     75.70     72.66    -23.96     24.00
   15.8173     74.52     72.84    -25.33     24.00
   15.8275     76.45     73.03    -23.59     24.00
   15.8377     76.16     73.22    -24.07     24.00
   15.8478     75.21     73.41    -25.21     24.00
   15.8580     76.35     73.61    -24.26     24.00
   15.8681     76.26     73.80    -24.55     24.00
   15.8783     76.54     74.00    -24.46     24.00
   15.8885     75.98     74.20    -25.22     24.00
   15.8986     77.00     74.39    -24.40     24.00
   15.9088     75.32     74.60    -26.28     24.00
   15.9190     75.61     74.80    -26.19     24.00
   15.9291     77.72     75.00    -24.28     24.00
   15.9393     78.16     75.21    -24.05     24.00
   15.9495     78.33     75.41    -24.09     24.00
   15.9596     77.64     75.62    -24.98     24.00
   15.9698     77.70     75.83    -25.13     24.00
   15.9800     78.33     76.04    -24.71     24.00
   15.9901     78.10     76.25    -25.15     24.00
   16.0003     80.00     76.46    -23.47     24.00
   16.0105     78.32     76.68    -25.36     24.00
   16.0206     78.81     76.90    -25.09     24.00
   16.0308     78.68     77.11    -25.44     24.00
   16.0409     79.19     77.33    -25.14     24.00
   16.0511     80.25     77.55    -24.31     24.00
   16.0613     79.75     77.77    -25.03     24.00
   16.0714     78.73     78.00    -26.27     24.00
   16.0816     79.40     78.22    -25.83     24.00
   16.0918     80.45     78.45    -25.00     24.00
   16.1019     78.77     78.67    -26.91     24.00
   16.1121     78.97     78.90    -26.94     24.00
   16.1223     81.16     79.13    -24.98     24.00
   16.1324     79.38     79.36    -26.99     24.00
   16.1426     80.58     79.60    -26.02     24.00
   16.1528     82.56     79.83    -24.28     24.00
   16.1629     82.52     80.07    -24.55     24.00
   16.1731     82.12     80.30    -25.19     24.00
   16.1832     81.54     80.54    -26.00     24.00
   16.1934     83.19     80.78    -24.59     24.00
   16.2036     82.13     81.02    -25.89     24.00
   16.2137     81.91     81.26    -26.35     24.00
   16.2239     83.68     81.50    -24.83     24.00
   16.2341     82.88     81.75    -25.87     24.00
   16.2442     82.46     81.99    -26.53     24.00
   16.2544     82.56     82.24    -26.68     24.00
   16.2646     83.83     82.48    -25.66     24.00
   16.2747     83.55     82.73    -26.18     24.00
   16.2849     82.85     82.98    -27.13     24.00
   16.2951     83.49     83.23    -26.74     24.00
   16.3052     83.45     83.48    -27.03     24.00
   16.3154     84.05     83.73    -26.69     24.00
   16.3256     83.75     83.98    -27.24     24.00
   16.3357     85.00     84.24    -26.24     24.00
   16.3459     84.16     84.49    -27.34     24.00
   16.3560     86.04     84.75    -25.71     24.00
   16.3662     85.66     85.00    -26.35     24.00
   16.3764     84.28     85.26    -27.98     24.00
   16.3865     86.62     85.52    -25.90     24.00
   16.3967     86.57     85.78    -26.21     24.00
   16.4069     87.15     86.04    -25.89     24.00
   16.4170     86.78     86.29    -26.52     24.00
   16.4272     86.64     86.56    -26.92     24.00
   16.4374     87.46     86.82    -26.36     24.00
   16.4475     86.45     87.08    -27.63     24.00
   16.4577     87.26     87.34    -27.08     24.00
   16.4679     86.89     87.60    -27.72     24.00
   16.4780     85.99     87.86    -28.88     24.00
   16.4882     85.91     88.13    -29.22     24.00
   16.4983     87.77     88.39    -27.62     24.00
   16.5085     88.37     88.66    -27.29     24.00
   16.5187     90.78     88.92    -25.14     24.00
   16.5288     89.03     89.18    -27.16     24.00
   16.5390     89.43     89.45    -27.02     24.00
   16.5492     87.90     89.71    -28.82     24.00
   16.5593     89.42     89.98    -27.56     24.00
   16.5695     89.60     90.24    -27.65     24.00
   16.5797     89.88     90.51    -27.63     24.00
   16.5898     90.14     90.77    -27.64     24.00
   16.6000     90.32     91.04    -27.72     24.00
   16.6102     91.16     91.30    -27.15     24.00
   16.6203     91.00     91.57    -27.57     24.00
   16.6305     90.95     91.83    -27.89     24.00
   16.6407     90.87     92.10    -28.23     24.00
   16.6508     91.12     92.36    -28.24     24.00
   16.6610     93.48     92.62    -26.15     24.00
   16.6711     91.63     92.88    -28.26     24.00
   16.6813     91.91     93.15    -28.24     24.00
   16.6915     92.36     93.41    -28.05     24.00
   16.7016     92.52     93.67    -28.15     24.00
   16.7118     94.01     93.93    -26.93     24.00
   16.7220     93.23     94.19    -27.97     24.00
   16.7321     92.89     94.45    -28.56     24.00
   16.7423     93.41     94.71    -28.30     24.00
   16.7525     94.64     94.97    -27.33     24.00
   16.7626     93.36     95.22    -28.87     24.00
   16.7728     95.29     95.48    -27.19     24.00
   16.7830     94.85     95.74    -27.89     24.00
   16.7931     94.23     95.99    -28.76     24.00
   16.8033     94.93     96.24    -28.31     24.00
   16.8134     95.27     96.49    -28.22     24.00
   16.8236     95.60     96.74    -28.15     24.00
   16.8338     95.38     96.99    -28.62     24.00
   16.8439     95.76     97.24    -28.48     24.00
   16.8541     95.57     97.49    -28.92     24.00
   16.8643     94.84     97.73    -29.90     24.00
   16.8744     96.06     97.97    -28.92     24.00
   16.8846     96.93     98.22    -28.29     24.00
   16.8948     96.13     98.46    -29.33     24.00
   16.9049     96.64     98.69    -29.06     24.00
   16.9151     97.13     98.93    -28.81     24.00
   16.9253     96.74     99.17    -29.43     24.00
   16.9354     97.70     99.40    -28.70     24.00
   16.9456     96.87     99.63    -29.77     24.00
   16.9558     97.52     99.86    -29.35     24.00
   16.9659     98.16    100.09    -28.93     24.00
   16.9761     96.25    100.32    -31.07     24.00
   16.9862     98.61    100.54    -28.93     24.00
   16.9964     98.61    100.76    -29.16     24.00
   17.0066     98.71    100.98    -29.28     24.00
   17.0167     98.52    101.20    -29.68     24.00
   17.0269     99.10    101.41    -29.32     24.00
   17.0371     97.69    101.63    -30.94     24.00
   17.0472     97.96    101.84    -30.88     24.00
   17.0574     99.76    102.05    -29.29     24.00
   17.0676     99.14    102.25    -30.12     24.00
   17.0777     98.80    102.45    -30.66     24.00
   17.0879     99.19    102.66    -30.47     24.00
   17.0981     99.76    102.85    -30.10     24.00
   17.1082    100.92    103.05    -29.13     24.00
   17.1184    100.23    103.24    -30.02     24.00
   17.1285     99.22    103.43    -31.22     24.00
   17.1387    101.30    103.62    -29.33     24.00
   17.1489    102.03    103.81    -28.78     24.00
   17.1590    101.16    103.99    -29.83     24.00
   17.1692    100.88    104.17    -30.29     24.00
   17.1794    102.21    104.35    -29.14     24.00
   17.1895    102.12    104.52    -29.41     24.00
   17.1997    101.14    104.69    -30.56     24.00
   17.2099    102.68    104.86    -29.19     24.00
   17.2200    102.97    105.03    -29.06     24.00
   17.2302    103.37    105.19    -28.83     24.00
   17.2404    104.65    105.36    -27.71     24.00
   17.2505    101.73    105.51    -30.79     24.00
   17.2607    103.17    105.67    -29.50     24.00
   17.2709    103.99    105.83    -28.84     24.00
   17.2810    102.24    105.98    -30.74     24.00
   17.2912    104.19    106.12    -28.94     24.00
   17.3013    104.26    106.27    -29.01     24.00
   17.3115    104.04    106.41    -29.38     24.00
   17.3217    103.77    106.56    -29.79     24.00
   17.3318    105.54    106.70    -28.16     24.00
   17.3420    105.50    106.83    -28.34     24.00
   17.3522    103.16    106.97    -30.81     24.00
   17.3623    104.52    107.10    -29.59     24.00
   17.3725    106.47    107.23    -27.77     24.00
   17.3827    104.83    107.36    -29.54     24.00
   17.3928    106.96    107.49    -27.54     24.00
   17.4030    106.73    107.62    -27.90     24.00
   17.4132    106.70    107.75    -28.05     24.00
   17.4233    107.93    107.87    -26.95     24.00
   17.4335    107.22    108.00    -27.78     24.00
   17.4436    106.84    108.12    -28.29     24.00
   17.4538    108.96    108.25    -26.29     24.00
   17.4640    108.36    108.37    -27.02     24.00
   17.4741    108.71    108.50    -26.79     24.00
   17.4843    109.82    108.63    -25.81     24.00
   17.4945    108.26    108.75    -27.50     24.00
   17.5046    110.20    108.88    -25.69     24.00
   17.5148    109.98    109.01    -26.04     24.00
   17.5250    108.85    109.15    -27.30     24.00
   17.5351    110.98    109.28    -25.31     24.00
   17.5453    110.35    109.42    -26.08     24.00
   17.5555    110.44    109.57    -26.13     24.00
   17.5656    111.29    109.71    -25.43     24.00
   17.5758    112.34    109.87    -24.53     24.00
   17.5859    110.99    110.02    -26.04     24.00
   17.5961    110.30    110.19    -26.89     24.00
   17.6063    112.05    110.36    -25.32     24.00
   17.6164    111.45    110.54    -26.09     24.00
   17.6266    114.13    110.73    -23.60     24.00
   17.6368    112.62    110.92    -25.31     24.00
   17.6469    112.42    111.13    -25.71     24.00
   17.6571    112.87    111.35    -25.48     24.00
   17.6673    116.07    111.58    -22.51     24.00
   17.6774    115.09    111.82    -23.73     24.00
   17.6876    114.87    112.07    -24.21     24.00
   17.6978    118.10    112.34    -21.25     24.00
   17.7079    115.74    112.63    -23.89     24.00
   17.7181    115.93    112.93    -24.01     24.00
   17.7283    116.87    113.25    -23.39     24.00
   17.7384    116.71    113.59    -23.88     24.00
   17.7486    119.44    113.95    -21.51     24.00
   17.7587    118.89    114.33    -22.44     24.00
   17.7689    118.51    114.73    -23.23     24.00
   17.7791    119.45    115.16    -22.72     24.00
   17.7892    120.74    115.61    -21.88     24.00
   17.7994    120.00    116.09    -23.10     24.00
   17.8096    122.54    116.60    -21.07     24.00
   17.8197    121.84    117.14    -22.30     24.00
   17.8299    121.63    117.71    -23.08     24.00
   17.8401    122.65    118.31    -22.66     24.00
   17.8502    125.14    118.94    -20.80     24.00
   17.8604    124.02    119.61    -22.59     24.00
   17.8706    125.80    120.32    -21.52     24.00
   17.8807    125.35    121.06    -22.71     24.00
   17.8909    126.42    121.84    -22.43     24.00
   17.9010    125.91    122.66    -23.75     24.00
   17.9112    127.35    123.53    -23.18     24.00
   17.9214    128.44    124.44    -23.01     24.00
   17.9315    128.60    125.39    -23.79     24.00
   17.9417    130.47    126.39    -22.93     24.00
   17.9519    132.35    127.45    -22.10     24.00
   17.9620    131.70    128.54    -23.84     24.00
   17.9722    134.59    129.69    -22.10     24.00
   17.9824    132.63    130.89    -25.26     24.00
   17.9925    135.98    132.13    -23.16     24.00
   18.0027    136.42    133.44    -24.02     24.00
   18.0129    137.26    134.80    -24.54     24.00
   18.0230    136.53    136.20    -26.68     24.00
   18.0332    139.67    137.67    -25.01     24.00
   18.0434    141.35    139.20    -24.86     24.00
   18.0535    142.21    140.77    -25.56     24.00
   18.0637    144.20    142.41    -25.21     24.00
   18.0738    145.76    144.09    -25.34     24.00
   18.0840    146.36    145.85    -26.49     24.00
   18.0942    147.18    147.66    -27.48     24.00
   18.1043    148.11    149.51    -28.40     24.00
   18.1145    150.95    151.43    -27.48     24.00
   18.1247    150.97    153.41    -29.44     24.00
   18.1348    152.91    155.42    -29.52     24.00
   18.1450    152.72    157.51    -31.80     24.00
   18.1552    155.77    159.65    -30.89     24.00
   18.1653    157.31    161.82    -31.52     24.00
   18.1755    160.58    164.07    -30.49     24.00
   18.1857    162.24    166.36    -31.12     24.00
   18.1958    163.56    168.67    -32.11     24.00
   18.2060    164.98    171.05    -33.08     24.00
   18.2161    166.62    173.45    -33.83     24.00
   18.2263    172.05    175.91    -30.87     24.00
   18.2365    171.46    178.41    -33.96     24.00
   18.2466    174.82    180.92    -33.10     24.00
   18.2568    175.93    183.48    -34.56     24.00
   18.2670    176.74    186.07    -36.34     24.00
   18.2771    181.90    188.66    -33.77     24.00
   18.2873    186.50    191.30    -31.80     24.00
   18.2975    185.43    193.95    -35.52     24.00
   18.3076    189.92    196.59    -33.67     24.00
   18.3178    193.59    199.26    -32.67     24.00
   18.3280    194.52    201.94    -34.42     24.00
   18.3381    198.45    204.59    -33.14     24.00
   18.3483    200.85    207.26    -33.41     24.00
   18.3585    203.82    209.91    -33.10     24.00
   18.3686    206.49    212.53    -33.05     24.00
   18.3788    209.50    215.16    -32.66     24.00
   18.3889    211.38    217.73    -33.35     24.00
   18.3991    216.52    220.30    -30.78     24.00
   18.4093    219.96    222.83    -29.87     24.00
   18.4194    221.95    225.29    -30.34     24.00
   18.4296    226.80    227.73    -27.94     24.00
   18.4398    226.59    230.12    -30.53     24.00
   18.4499    228.02    232.42    -31.41     24.00
   18.4601    234.29    234.69    -27.40     24.00
   18.4703    238.36    236.88    -25.53     24.00
   18.4804    237.48    238.98    -28.50     24.00
   18.4906    245.54    241.02    -22.48     24.00
   18.5008    247.21    242.97    -22.76     24.00
   18.5109    246.98    244.81    -24.83     24.00
   18.5211    251.72    246.57    -21.85     24.00
   18.5312    257.28    248.21    -17.93     24.00
   18.5414    254.10    249.76    -22.66     24.00
   18.5516    258.85    251.20    -19.35     24.00
   18.5617    260.41    252.50    -19.10     24.00
   18.5719    260.84    253.70    -19.87     24.00
   18.5821    265.20    254.78    -16.58     24.00
   18.5922    264.55    255.72    -18.17     24.00
   18.6024    264.77    256.53    -18.77     24.00
   18.6126    268.71    257.22    -15.51     24.00
   18.6227    267.70    257.76    -17.06     24.00
   18.6329    267.23    258.16    -17.94     24.00
   18.6431    268.57    258.43    -16.86     24.00
   18.6532    269.68    258.55    -15.88     24.00
   18.6634    269.88    258.54    -15.66     24.00
   18.6736    269.95    258.38    -15.43     24.00
   18.6837    270.02    258.08    -15.07     24.00
   18.6939    267.85    257.64    -16.80     24.00
   18.7040    267.40    257.07    -16.68     24.00
   18.7142    267.31    256.36    -16.05     24.00
   18.7244    263.57    255.51    -18.95     24.00
   18.7345    261.56    254.54    -19.98     24.00
   18.7447    261.41    253.43    -19.03     24.00
   18.7549    254.32    252.20    -24.88     24.00
   18.7650    258.24    250.86    -19.62     24.00
   18.7752    254.28    249.38    -22.11     24.00
   18.7854    250.18    247.80    -24.62     24.00
   18.7955    250.60    246.12    -22.53     24.00
   18.8057    246.27    244.33    -25.06     24.00
   18.8159    243.28    242.43    -26.16     24.00
   18.8260    239.38    240.46    -28.09     24.00
   18.8362    236.56    238.39    -28.84     24.00
   18.8463    234.57    236.26    -28.69     24.00
   18.8565    231.34    234.03    -29.69     24.00
   18.8667    229.77    231.73    -28.96     24.00
   18.8768    223.37    229.39    -33.02     24.00
   18.8870    221.19    226.96    -32.78     24.00
   18.8972    219.99    224.49    -31.50     24.00
   18.9073    213.51    221.99    -35.48     24.00
   18.9175    213.17    219.43    -33.26     24.00
   18.9277    208.26    216.83    -35.57     24.00
   18.9378    205.66    214.22    -35.57     24.00
   18.9480    201.50    211.57    -37.07     24.00
   18.9582    201.15    208.90    -34.75     24.00
   18.9683    196.49    206.24    -36.75     24.00
   18.9785    195.45    203.54    -35.10     24.00
   18.9887    191.40    200.84    -36.45     24.00
   18.9988    189.45    198.17    -35.72     24.00
   19.0090    188.75    195.48    -33.73     24.00
   19.0191    182.99    192.82    -36.84     24.00
   19.0293    182.07    190.16    -35.09     24.00
   19.0395    180.00    187.51    -34.52     24.00
   19.0496    175.95    184.91    -35.97     24.00
   19.0598    172.84    182.32    -36.48     24.00
   19.0700    173.13    179.75    -33.63     24.00
   19.0801    170.59    177.24    -33.66     24.00
   19.0903    166.85    174.75    -34.90     24.00
   19.1005    165.61    172.30    -33.69     24.00
   19.1106    166.41    169.91    -30.51     24.00
   19.1208    162.36    167.55    -32.19     24.00
   19.1310    161.40    165.23    -30.84     24.00
   19.1411    159.42    162.99    -30.57     24.00
   19.1513    157.20    160.78    -30.58     24.00
   19.1614    155.90    158.64    -29.75     24.00
   19.1716    153.99    156.54    -29.56     24.00
   19.1818    151.63    154.50    -29.88     24.00
   19.1919    151.73    152.54    -27.81     24.00
   19.2021    150.10    150.62    -27.52     24.00
   19.2123    147.89    148.76    -27.87     24.00
   19.2224    148.79    146.98    -25.19     24.00
   19.2326    147.51    145.24    -24.73     24.00
   19.2428    145.20    143.57    -25.37     24.00
   19.2529    144.74    141.97    -24.24     24.00
   19.2631    144.75    140.43    -22.68     24.00
   19.2733    142.52    138.94    -23.43     24.00
   19.2834    141.23    137.54    -23.31     24.00
   19.2936    140.77    136.18    -22.41     24.00
   19.3038    140.54    134.89    -21.35     24.00
   19.3139    139.48    133.67    -21.19     24.00
   19.3241    137.37    132.49    -22.13     24.00
   19.3342    138.98    131.39    -19.42     24.00
   19.3444    137.26    130.34    -20.08     24.00
   19.3546    136.25    129.35    -20.10     24.00
   19.3647    135.80    128.42    -19.63     24.00
   19.3749    136.23    127.54    -18.32     24.00
   19.3851    135.60    126.72    -18.12     24.00
   19.3952    132.76    125.96    -20.20     24.00
   19.4054    133.54    125.24    -18.70     24.00
   19.4156    132.23    124.57    -19.35     24.00
   19.4257    131.29    123.96    -19.68     24.00
   19.4359    132.42    123.40    -17.98     24.00
   19.4461    129.37    122.88    -20.51     24.00
   19.4562    129.46    122.41    -19.96     24.00
   19.4664    129.49    121.98    -19.50     24.00
   19.4765    130.38    121.60    -18.22     24.00
   19.4867    127.29    121.26    -20.97     24.00
   19.4969    128.92    120.95    -19.04     24.00
   19.5070    127.18    120.69    -20.52     24.00
   19.5172    128.59    120.46    -18.88     24.00
   19.5274    126.91    120.27    -20.37     24.00
   19.5375    129.16    120.12    -17.96     24.00
   19.5477    128.24    119.99    -18.76     24.00
   19.5579    128.46    119.90    -18.45     24.00
   19.5680    125.44    119.84    -21.40     24.00
   19.5782    126.59    119.81    -20.22     24.00
   19.5884    125.04    119.80    -21.77     24.00
   19.5985    126.77    119.82    -20.06     24.00
   19.6087    125.99    119.87    -20.89     24.00
   19.6188    125.71    119.94    -21.24     24.00
   19.6290    126.37    120.04    -20.67     24.00
   19.6392    125.02    120.15    -22.13     24.00
   19.6493    125.13    120.29    -22.16     24.00
   19.6595    123.03    120.44    -24.42     24.00
   19.6697    124.21    120.62    -23.41     24.00
   19.6798    123.46    120.80    -24.35     24.00
   19.6900    124.04    121.01    -23.98     24.00
   19.7002    124.96    121.24    -23.28     24.00
   19.7103    123.25    121.47    -25.23     24.00
   19.7205    123.99    121.72    -24.74     24.00
   19.7307    124.07    121.99    -24.92     24.00
   19.7408    122.57    122.26    -26.70     24.00
   19.7510    122.24    122.55    -27.31     24.00
   19.7612    125.30    122.85    -24.55     24.00
   19.7713    122.77    123.15    -27.38     24.00
   19.7815    124.27    123.47    -26.20     24.00
   19.7916    123.52    123.79    -27.27     24.00
   19.8018    123.23    124.12    -27.89     24.00
   19.8120    122.40    124.46    -29.06     24.00
   19.8221    122.25    124.80    -29.56     24.00
   19.8323    123.68    125.15    -28.48     24.00
   19.8425    123.37    125.51    -29.14     24.00
   19.8526    123.79    125.86    -29.08     24.00
   19.8628    123.00    126.23    -30.23     24.00
   19.8730    123.71    126.60    -29.89     24.00
   19.8831    123.80    126.96    -30.17     24.00
   19.8933    124.12    127.34    -30.22     24.00
   19.9035    124.93    127.71    -29.78     24.00
   19.9136    121.49    128.08    -33.60     24.00
   19.9238    126.38    128.46    -29.08     24.00
   19.9339    124.57    128.83    -31.27     24.00
   19.9441    123.09    129.21    -33.13     24.00
   19.9543    124.87    129.59    -31.72     24.00
   19.9644    126.25    129.96    -30.72     24.00
   19.9746    124.75    130.34    -32.59     24.00
   19.9848    124.35    130.71    -33.37     24.00
   19.9949    125.71    131.08    -32.37     24.00
   20.0051    124.07    131.45    -34.38     24.00
   20.0153    125.46    131.82    -33.36     24.00
   20.0254    126.84    132.18    -32.34     24.00
   20.0356    125.43    132.54    -34.11     24.00
   20.0458    125.99    132.89    -33.91     24.00
   20.0559    127.70    133.24    -32.55     24.00
   20.0661    126.33    133.59    -34.26     24.00
   20.0763    126.47    133.93    -34.47     24.00
   20.0864    127.73    134.27    -33.54     24.00
   20.0966    126.46    134.60    -35.15     24.00
   20.1067    127.64    134.93    -34.29     24.00
   20.1169    129.99    135.25    -32.26     24.00
   20.1271    128.35    135.56    -34.22     24.00
   20.1372    130.87    135.87    -32.00     24.00
   20.1474    129.91    136.17    -33.26     24.00
   20.1576    131.37    136.46    -32.10     24.00
   20.1677    131.40    136.75    -32.35     24.00
   20.1779    131.65    137.02    -32.38     24.00
   20.1881    129.91    137.29    -34.39     24.00
   20.1982    131.97    137.55    -32.59     24.00
   20.2084    132.84    137.81    -31.97     24.00
   20.2186    131.62    138.05    -33.44     24.00
   20.2287    132.33    138.29    -32.96     24.00
   20.2389    133.60    138.51    -31.92     24.00
   20.2490    133.93    138.73    -31.80     24.00
   20.2592    135.73    138.93    -30.21     24.00
   20.2694    134.99    139.13    -31.15     24.00
   20.2795    135.23    139.32    -31.09     24.00
   20.2897    136.21    139.49    -30.29     24.00
   20.2999    137.63    139.66    -29.03     24.00
   20.3100    136.49    139.81    -30.33     24.00
   20.3202    138.38    139.96    -28.58     24.00
   20.3304    138.13    140.09    -28.96     24.00
   20.3405    137.22    140.21    -30.00     24.00
   20.3507    138.63    140.32    -28.70     24.00
   20.3609    138.32    140.42    -29.10     24.00
   20.3710    139.24    140.51    -28.27     24.00
   20.3812    140.81    140.58    -26.78     24.00
   20.3914    140.04    140.65    -27.61     24.00
   20.4015    139.00    140.70    -28.70     24.00
   20.4117    141.97    140.74    -25.77     24.00
   20.4218    141.57    140.76    -26.20     24.00
   20.4320    142.11    140.78    -25.67     24.00
   20.4422    140.93    140.78    -26.86     24.00
   20.4523    142.15    140.77    -25.63     24.00
   20.4625    142.70    140.75    -25.06     24.00
   20.4727    142.63    140.72    -25.09     24.00
   20.4828    144.38    140.67    -23.30     24.00
   20.4930    143.01    140.62    -24.61     24.00
   20.5032    144.59    140.55    -22.96     24.00
   20.5133    147.12    140.46    -20.35     24.00
   20.5235    142.79    140.37    -24.58     24.00
   20.5337    145.85    140.26    -21.42     24.00
   20.5438    143.59    140.15    -23.56     24.00
   20.5540    145.30    140.02    -21.72     24.00
   20.5641    145.30    139.88    -21.58     24.00
   20.5743    145.37    139.72    -21.36     24.00
   20.5845    145.30    139.56    -21.26     24.00
   20.5946    147.55    139.38    -18.84     24.00
   20.6048    146.38    139.20    -19.82     24.00
   20.6150    146.16    139.00    -19.84     24.00
   20.6251    144.53    138.79    -21.26     24.00
   20.6353    146.05    138.57    -19.52     24.00
   20.6455    144.43    138.34    -20.91     24.00
   20.6556    144.05    138.10    -21.05     24.00
   20.6658    142.74    137.85    -22.11     24.00
   20.6760    143.86    137.59    -20.73     24.00
   20.6861    141.93    137.32    -22.39     24.00
   20.6963    143.29    137.04    -20.75     24.00
   20.7065    143.48    136.75    -20.27     24.00
   20.7166    142.54    136.45    -20.92     24.00
   20.7268    142.66    136.15    -20.49     24.00
   20.7369    142.34    135.83    -20.50     24.00
   20.7471    144.31    135.51    -18.20     24.00
   20.7573    141.63    135.18    -20.55     24.00
   20.7674    139.56    134.84    -22.29     24.00
   20.7776    139.07    134.50    -22.43     24.00
   20.7878    139.34    134.14    -21.81     24.00
   20.7979    138.19    133.79    -22.60     24.00
   20.8081    139.60    133.42    -20.82     24.00
   20.8183    136.52    133.05    -23.53     24.00
   20.8284    136.44    132.67    -23.24     24.00
   20.8386    136.25    132.29    -23.04     24.00
   20.8488    135.44    131.90    -23.46     24.00
   20.8589    133.41    131.51    -25.10     24.00
   20.8691    135.08    131.11    -23.03     24.00
   20.8792    134.31    130.71    -23.40     24.00
   20.8894    131.80    130.30    -25.50     24.00
   20.8996    132.93    129.89    -23.96     24.00
   20.9097    129.71    129.48    -26.77     24.00
   20.9199    130.32    129.06    -25.75     24.00
   20.9301    131.15    128.64    -24.50     24.00
   20.9402    130.87    128.22    -24.36     24.00
   20.9504    127.98    127.80    -26.82     24.00
   20.9606    128.01    127.37    -26.37     24.00
   20.9707    128.07    126.95    -25.88     24.00
   20.9809    126.82    126.52    -26.71     24.00
   20.9911    126.08    126.09    -27.02     24.00
   21.0012    125.70    125.67    -26.97     24.00
   21.0114    125.24    125.24    -27.00     24.00
   21.0216    124.31    124.81    -27.51     24.00
   21.0317    122.59    124.39    -28.80     24.00
   21.0419    120.93    123.96    -30.04     24.00
   21.0520    123.99    123.54    -26.56     24.00
   21.0622    121.07    123.12    -29.06     24.00
   21.0724    122.12    122.70    -27.59     24.00
   21.0825    121.54    122.29    -27.75     24.00
   21.0927    120.38    121.87    -28.50     24.00
   21.1029    118.83    121.46    -29.64     24.00
   21.1130    120.80    121.06    -27.26     24.00
   21.1232    119.01    120.66    -28.65     24.00
   21.1334    118.32    120.26    -28.94     24.00
   21.1435    117.46    119.87    -29.41     24.00
   21.1537    118.21    119.48    -28.28     24.00
   21.1639    116.53    119.10    -29.57     24.00
   21.1740    115.62    118.73    -30.11     24.00
   21.1842    115.80    118.36    -29.56     24.00
   21.1943    115.41    118.00    -29.59     24.00
   21.2045    114.66    117.64    -29.99     24.00
   21.2147    114.97    117.29    -29.33     24.00
   21.2248    112.60    116.96    -31.36     24.00
   21.2350    114.11    116.63    -29.52     24.00
   21.2452    114.96    116.30    -28.35     24.00
   21.2553    112.37    115.99    -30.63     24.00
   21.2655    113.95    115.69    -28.74     24.00
   21.2757    113.24    115.40    -29.16     24.00
   21.2858    112.20    115.12    -29.92     24.00
   21.2960    112.16    114.84    -29.69     24.00
   21.3062    114.18    114.58    -27.40     24.00
   21.3163    111.22    114.33    -30.12     24.00
   21.3265    110.46    114.09    -30.64     24.00
   21.3366    111.04    113.87    -29.84     24.00
   21.3468    109.96    113.66    -30.70     24.00
   21.3570    111.89    113.46    -28.57     24.00
   21.3671    111.58    113.27    -28.70     24.00
   21.3773    111.59    113.10    -28.51     24.00
   21.3875    112.33    112.94    -27.61     24.00
   21.3976    110.77    112.80    -29.03     24.00
   21.4078    110.43    112.67    -29.24     24.00
   21.4180    110.85    112.55    -28.71     24.00
   21.4281    110.76    112.46    -28.70     24.00
   21.4383    109.15    112.37    -30.23     24.00
   21.4485    110.79    112.31    -28.52     24.00
   21.4586    109.84    112.26    -29.42     24.00
   21.4688    109.33    112.22    -29.90     24.00
   21.4790    110.62    112.21    -28.59     24.00
   21.4891    109.91    112.21    -29.30     24.00
   21.4993    109.19    112.23    -30.04     24.00
   21.5094    110.91    112.27    -28.36     24.00
   21.5196    110.82    112.32    -28.51     24.00
   21.5298    109.32    112.40    -30.08     24.00
   21.5399    110.42    112.49    -29.08     24.00
   21.5501    111.72    112.60    -27.89     24.00
   21.5603    109.67    112.74    -30.07     24.00
   21.5704    110.61    112.89    -29.28     24.00
   21.5806    111.49    113.06    -28.57     24.00
   21.5908    110.50    113.25    -29.76     24.00
   21.6009    111.19    113.46    -29.28     24.00
   21.6111    112.33    113.69    -28.37     24.00
   21.6213    112.37    113.95    -28.58     24.00
   21.6314    113.50    114.22    -27.72     24.00
   21.6416    112.94    114.51    -28.58     24.00
   21.6517    111.16    114.82    -30.67     24.00
   21.6619    114.11    115.16    -28.05     24.00
   21.6721    115.94    115.52    -26.58     24.00
   21.6822    114.04    115.89    -28.86     24.00
   21.6924    115.59    116.29    -27.70     24.00
   21.7026    115.60    116.71    -28.11     24.00
   21.7127    115.60    117.15    -28.55     24.00
   21.7229    118.34    117.61    -26.27     24.00
   21.7331    116.68    118.09    -28.41     24.00
   21.7432    117.03    118.59    -28.56     24.00
   21.7534    119.05    119.11    -27.06     24.00
   21.7636    120.22    119.65    -26.44     24.00
   21.7737    119.22    120.21    -27.99     24.00
   21.7839    120.08    120.79    -27.72     24.00
   21.7941    121.65    121.39    -26.75     24.00
   21.8042    119.60    122.01    -29.41     24.00
   21.8144    121.85    122.65    -27.80     24.00
   21.8245    123.88    123.30    -26.43     24.00
   21.8347    122.48    123.98    -28.50     24.00
   21.8449    123.67    124.67    -28.01     24.00
   21.8550    126.26    125.38    -26.12     24.00
   21.8652    124.77    126.11    -28.34     24.00
   21.8754    126.18    126.85    -27.68     24.00
   21.8855    127.38    127.61    -27.23     24.00
   21.8957    127.62    128.38    -27.77     24.00
   21.9059    128.69    129.17    -27.49     24.00
   21.9160    128.66    129.97    -28.31     24.00
   21.9262    129.23    130.79    -28.56     24.00
   21.9364    130.59    131.62    -28.03     24.00
   21.9465    133.10    132.45    -26.36     24.00
   21.9567    132.08    133.31    -28.23     24.00
   21.9668    134.01    134.16    -27.16     24.00
   21.9770    135.37    135.04    -26.67     24.00
   21.9872    134.60    135.92    -28.32     24.00
   21.9973    138.91    136.80    -24.90     24.00
   22.0075    136.06    137.70    -28.64     24.00
   22.0177    137.46    138.60    -28.15     24.00
   22.0278    139.41    139.50    -27.10     24.00
   22.0380    140.60    140.42    -26.82     24.00
   22.0482    139.29    141.33    -29.05     24.00
   22.0583    142.75    142.24    -26.50     24.00
   22.0685    143.39    143.16    -26.78     24.00
   22.0787    143.01    144.08    -28.08     24.00
   22.0888    145.05    144.99    -26.95     24.00
   22.0990    146.61    145.91    -26.31     24.00
   22.1092    145.30    146.83    -28.53     24.00
   22.1193    146.48    147.73    -28.25     24.00
   22.1295    149.48    148.63    -26.15     24.00
   22.1396    149.09    149.52    -27.43     24.00
   22.1498    151.66    150.41    -25.75     24.00
   22.1600    152.80    151.29    -25.49     24.00
   22.1701    152.74    152.15    -26.41     24.00
   22.1803    155.66    153.01    -24.35     24.00
   22.1905    157.87    153.86    -22.99     24.00
   22.2006    155.75    154.68    -25.93     24.00
   22.2108    157.59    155.50    -24.91     24.00
   22.2210    158.90    156.30    -24.40     24.00
   22.2311    158.80    157.08    -25.28     24.00
   22.2413    162.68    157.84    -22.16     24.00
   22.2515    163.03    158.58    -22.56     24.00
   22.2616    161.71    159.30    -24.60     24.00
   22.2718    162.43    160.00    -24.58     24.00
   22.2819    165.40    160.67    -22.28     24.00
   22.2921    163.96    161.33    -24.37     24.00
   22.3023    164.50    161.95    -24.46     24.00
   22.3124    166.09    162.55    -23.46     24.00
   22.3226    167.34    163.12    -22.78     24.00
   22.3328    167.21    163.66    -23.45     24.00
   22.3429    167.71    164.17    -23.46     24.00
   22.3531    166.83    164.65    -24.82     24.00
   22.3633    170.41    165.10    -21.69     24.00
   22.3734    168.95    165.51    -23.56     24.00
   22.3836    166.59    165.89    -26.30     24.00
   22.3938    170.92    166.23    -22.32     24.00
   22.4039    171.11    166.54    -22.44     24.00
   22.4141    169.98    166.82    -23.84     24.00
   22.4243    170.16    167.05    -23.90     24.00
   22.4344    171.62    167.25    -22.63     24.00
   22.4446    169.65    167.41    -24.76     24.00
   22.4547    172.27    167.53    -22.26     24.00
   22.4649    172.38    167.61    -22.24     24.00
   22.4751    168.43    167.66    -26.23     24.00
   22.4852    169.73    167.66    -24.93     24.00
   22.4954    170.83    167.62    -23.80     24.00
   22.5056    166.52    167.54    -28.03     24.00
   22.5157    168.71    167.43    -25.72     24.00
   22.5259    169.29    167.27    -24.98     24.00
   22.5361    168.18    167.07    -25.90     24.00
   22.5462    167.83    166.84    -26.01     24.00
   22.5564    168.02    166.56    -25.54     24.00
   22.5666    166.68    166.24    -26.56     24.00
   22.5767    165.51    165.89    -27.38     24.00
   22.5869    167.43    165.49    -25.06     24.00
   22.5970    164.64    165.06    -27.42     24.00
   22.6072    163.66    164.59    -27.93     24.00
   22.6174    163.90    164.08    -27.18     24.00
   22.6275    162.14    163.54    -28.40     24.00
   22.6377    162.08    162.96    -27.88     24.00
   22.6479    162.63    162.34    -26.72     24.00
   22.6580    159.80    161.70    -28.90     24.00
   22.6682    159.46    161.02    -28.56     24.00
   22.6784    160.09    160.30    -27.21     24.00
   22.6885    155.66    159.56    -30.90     24.00
   22.6987    156.29    158.78    -29.50     24.00
   22.7089    156.37    157.98    -28.61     24.00
   22.7190    153.51    157.15    -30.64     24.00
   22.7292    153.76    156.29    -29.53     24.00
   22.7394    153.65    155.40    -28.75     24.00
   22.7495    150.19    154.49    -31.31     24.00
   22.7597    150.78    153.56    -29.78     24.00
   22.7698    150.38    152.60    -29.23     24.00
   22.7800    145.38    151.62    -33.25     24.00
   22.7902    147.41    150.62    -30.21     24.00
   22.8003    147.99    149.61    -28.62     24.00
   22.8105    143.34    148.57    -32.23     24.00
   22.8207    143.26    147.51    -31.26     24.00
   22.8308    142.09    146.45    -31.37     24.00
   22.8410    139.89    145.36    -32.48     24.00
   22.8512    141.15    144.26    -30.12     24.00
   22.8613    138.12    143.16    -32.05     24.00
   22.8715    139.09    142.04    -29.95     24.00
   22.8817    138.65    140.90    -29.26     24.00
   22.8918    136.73    139.77    -30.05     24.00
   22.9020    134.86    138.62    -30.77     24.00
   22.9121    133.36    137.48    -31.12     24.00
   22.9223    131.56    136.31    -31.76     24.00
   22.9325    129.96    135.15    -32.19     24.00
   22.9426    131.75    133.99    -29.24     24.00
   22.9528    131.04    132.81    -28.78     24.00
   22.9630    128.52    131.64    -30.12     24.00
   22.9731    128.63    130.48    -28.85     24.00
   22.9833    126.40    129.30    -29.91     24.00
   22.9935    125.41    128.13    -29.72     24.00
   23.0036    124.43    126.97    -29.54     24.00
   23.0138    123.99    125.80    -28.81     24.00
   23.0240    121.90    124.64    -29.74     24.00
   23.0341    122.02    123.49    -28.47     24.00
   23.0443    121.30    122.33    -28.04     24.00
   23.0545    119.67    121.19    -28.52     24.00
   23.0646    118.97    120.06    -28.09     24.00
   23.0748    116.46    118.93    -29.47     24.00
   23.0849    116.37    117.81    -28.45     24.00
   23.0951    115.74    116.70    -27.96     24.00
   23.1053    114.59    115.59    -28.01     24.00
   23.1154    112.83    114.51    -28.69     24.00
   23.1256    114.31    113.43    -26.12     24.00
   23.1358    112.73    112.36    -26.63     24.00
   23.1459    110.70    111.31    -27.61     24.00
   23.1561    110.42    110.26    -26.85     24.00
   23.1663    111.21    109.23    -25.02     24.00
   23.1764    107.84    108.22    -27.38     24.00
   23.1866    108.48    107.21    -25.73     24.00
   23.1968    108.38    106.22    -24.84     24.00
   23.2069    105.66    105.25    -26.59     24.00
   23.2171    106.88    104.29    -24.41     24.00
   23.2272    106.74    103.35    -23.61     24.00
   23.2374    103.62    102.41    -25.80     24.00
   23.2476    104.53    101.50    -23.97     24.00
   23.2577    103.50    100.60    -24.11     24.00
   23.2679    101.93     99.72    -24.79     24.00
   23.2781    100.39     98.85    -25.46     24.00
   23.2882    100.27     98.00    -24.74     24.00
   23.2984    101.26     97.17    -22.91     24.00
   23.3086     98.63     96.35    -24.72     24.00
   23.3187     95.52     95.55    -27.03     24.00
   23.3289     97.95     94.76    -23.81     24.00
   23.3391     97.24     93.99    -23.75     24.00
   23.3492     96.51     93.24    -23.73     24.00
   23.3594     95.07     92.50    -24.43     24.00
   23.3695     93.97     91.78    -24.82     24.00
   23.3797     94.13     91.08    -23.95     24.00
   23.3899     93.27     90.39    -24.12     24.00
   23.4000     92.79     89.72    -23.93     24.00
   23.4102     90.83     89.06    -25.23     24.00
   23.4204     92.50     88.42    -22.92     24.00
   23.4305     91.16     87.79    -23.64     24.00
   23.4407     91.21     87.18    -22.97     24.00
   23.4509     90.89     86.58    -22.70     24.00
   23.4610     89.77     86.01    -23.24     24.00
   23.4712     89.19     85.44    -23.25     24.00
   23.4814     87.52     84.89    -24.37     24.00
   23.4915     88.01     84.35    -23.35     24.00
   23.5017     86.59     83.83    -24.24     24.00
   23.5119     85.54     83.32    -24.78     24.00
   23.5220     86.80     82.82    -23.03     24.00
   23.5322     85.05     82.34    -24.29     24.00
   23.5423     84.37     81.87    -24.51     24.00
   23.5525     84.90     81.42    -23.52     24.00
   23.5627     83.03     80.97    -24.94     24.00
   23.5728     83.80     80.54    -23.74     24.00
   23.5830     82.36     80.12    -24.76     24.00
   23.5932     82.26     79.71    -24.45     24.00
   23.6033     82.10     79.31    -24.22     24.00
   23.6135     82.11     78.93    -23.82     24.00
   23.6237     81.60     78.55    -23.96     24.00
   23.6338     81.35     78.19    -23.84     24.00
   23.6440     82.02     77.83    -22.82     24.00
   23.6542     79.66     77.49    -24.83     24.00
   23.6643     80.14     77.16    -24.02     24.00
   23.6745     79.91     76.83    -23.92     24.00
   23.6846     79.30     76.51    -24.22     24.00
   23.6948     77.98     76.21    -25.23     24.00
   23.7050     78.53     75.91    -24.38     24.00
   23.7151     77.96     75.62    -24.66     24.00
   23.7253     77.99     75.33    -24.35     24.00
   23.7355     77.44     75.06    -24.62     24.00
   23.7456     78.05     74.79    -23.75     24.00
   23.7558     75.27     74.53    -26.27     24.00
   23.7660     75.95     74.28    -25.33     24.00
   23.7761     75.47     74.03    -25.57     24.00
   23.7863     74.37     73.79    -26.43     24.00
   23.7965     76.29     73.56    -24.27     24.00
   23.8066     74.47     73.33    -25.87     24.00
   23.8168     75.28     73.11    -24.83     24.00
   23.8270     73.44     72.89    -26.46     24.00
   23.8371     73.90     72.68    -25.79     24.00
   23.8473     73.87     72.48    -25.61     24.00
   23.8574     73.29     72.28    -25.99     24.00
   23.8676     71.94     72.08    -27.15     24.00
   23.8778     72.30     71.89    -26.59     24.00
   23.8879     71.59     71.71    -27.12     24.00
   23.8981     72.64     71.52    -25.89     24.00
   23.9083     72.12     71.34    -26.23     24.00
   23.9184     70.87     71.17    -27.30     24.00
   23.9286     69.60     71.00    -28.40     24.00
   23.9388     72.70     70.83    -25.13     24.00
   23.9489     69.89     70.67    -27.78     24.00
   23.9591     70.33     70.51    -27.18     24.00
   23.9693     69.76     70.35    -27.59     24.00
   23.9794     69.12     70.19    -28.08     24.00
   23.9896     69.76     70.04    -27.29     24.00
   23.9997     69.00     69.89    -27.90     24.00
   24.0099     69.84     69.75    -26.91     24.00
   24.0201     68.46     69.60    -28.15     24.00
   24.0302     68.98     69.46    -27.48     24.00
   24.0404     68.90     69.32    -27.42     24.00
   24.0506     67.22     69.18    -28.97     24.00
   24.0607     68.76     69.05    -27.29     24.00
   24.0709     68.18     68.91    -27.74     24.00
   24.0811     67.89     68.78    -27.89     24.00
   24.0912     67.74     68.65    -27.92     24.00
   24.1014     66.12     68.52    -29.41     24.00
   24.1116     66.47     68.40    -28.93     24.00
   24.1217     66.98     68.27    -28.29     24.00
   24.1319     66.14     68.15    -29.01     24.00
   24.1421     66.26     68.02    -28.77     24.00
   24.1522     65.92     67.90    -28.99     24.00
   24.1624     65.26     67.78    -29.53     24.00
   24.1725     64.66     67.66    -30.01     24.00
   24.1827     66.18     67.55    -28.37     24.00
   24.1929     64.01     67.43    -30.42     24.00
   24.2030     65.28     67.31    -29.04     24.00
   24.2132     65.30     67.20    -28.90     24.00
   24.2234     64.79     67.08    -29.30     24.00
   24.2335     65.63     66.97    -28.35     24.00
   24.2437     64.94     66.86    -28.92     24.00
   24.2539     64.00     66.75    -29.75     24.00
   24.2640     63.35     66.64    -30.29     24.00
   24.2742     63.66     66.53    -29.87     24.00
   24.2844     64.71     66.42    -28.71     24.00
   24.2945     63.48     66.31    -29.83     24.00
   24.3047     63.35     66.20    -29.85     24.00
   24.3148     62.87     66.09    -30.23     24.00
   24.3250     62.79     65.98    -30.20     24.00
   24.3352     63.03     65.88    -29.85     24.00
   24.3453     62.08     65.77    -30.69     24.00
   24.3555     63.22     65.66    -29.45     24.00
   24.3657     63.58     65.56    -28.98     24.00
   24.3758     61.94     65.45    -30.52     24.00
   24.3860     60.83     65.35    -31.52     24.00
   24.3962     62.01     65.24    -30.24     24.00
   24.4063     62.77     65.14    -29.38     24.00
   24.4165     62.08     65.04    -29.96     24.00
   24.4267     62.68     64.93    -29.26     24.00
   24.4368     60.62     64.83    -31.22     24.00
   24.4470     60.98     64.73    -30.75     24.00
   24.4572     62.49     64.63    -29.14     24.00
   24.4673     61.20     64.53    -30.33     24.00
   24.4775     60.82     64.42    -30.61     24.00
   24.4876     60.12     64.32    -31.21     24.00
   24.4978     60.91     64.22    -30.32     24.00
   24.5080     59.87     64.12    -31.25     24.00
   24.5181     61.89     64.02    -29.13     24.00
   24.5283     60.78     63.92    -30.14     24.00
   24.5385     60.95     63.82    -29.87     24.00
   24.5486     60.65     63.72    -30.07     24.00
   24.5588     61.43     63.62    -29.19     24.00
   24.5690     59.89     63.52    -30.63     24.00
   24.5791     59.29     63.42    -31.13     24.00
   24.5893     59.98     63.32    -30.34     24.00
   24.5995     59.66     63.22    -30.57     24.00
   24.6096     59.26     63.12    -30.87     24.00
   24.6198     58.40     63.02    -31.63     24.00
   24.6299     60.08     62.93    -29.85     24.00
   24.6401     58.50     62.83    -31.33     24.00
   24.6503     59.46     62.73    -30.27     24.00
   24.6604     58.63     62.63    -31.01     24.00
   24.6706     59.49     62.53    -30.05     24.00
   24.6808     58.28     62.44    -31.16     24.00
   24.6909     58.67     62.34    -30.67     24.00
   24.7011     58.73     62.24    -30.51     24.00
   24.7113     58.56     62.14    -30.59     24.00
   24.7214     58.75     62.05    -30.30     24.00
   24.7316     59.05     61.95    -29.90     24.00
   24.7418     58.16     61.85    -30.70     24.00
   24.7519     57.55     61.76    -31.21     24.00
   24.7621     58.45     61.66    -30.21     24.00
   24.7723     58.15     61.56    -30.42     24.00
   24.7824     59.12     61.47    -29.35     24.00
   24.7926     58.21     61.37    -30.16     24.00
   24.8027     57.02     61.28    -31.26     24.00
   24.8129     57.43     61.18    -30.75     24.00
   24.8231     58.29     61.08    -29.80     24.00
   24.8332     56.86     60.99    -31.13     24.00
   24.8434     57.17     60.89    -30.73     24.00
   24.8536     56.23     60.80    -31.57     24.00
   24.8637     57.05     60.70    -30.66     24.00
   24.8739     57.27     60.61    -30.34     24.00
   24.8841     56.60     60.51    -30.92     24.00
   24.8942     56.52     60.42    -30.90     24.00
   24.9044     59.09     60.32    -28.24     24.00
   24.9146     56.88     60.23    -30.35     24.00
   24.9247     56.96     60.13    -30.18     24.00
   24.9349     55.25     60.04    -31.79     24.00
   24.9450     56.57     59.95    -30.38     24.00
   24.9552     57.29     59.85    -29.57     24.00
   24.9654     56.55     59.76    -30.21     24.00
   24.9755     56.34     59.67    -30.33     24.00
   24.9857     56.98     59.57    -29.60     24.00
   24.9959     56.50     59.48    -29.98     24.00
   25.0060     57.23     59.39    -29.16     24.00
   25.0162     56.21     59.29    -30.09     24.00
   25.0264     56.73     59.20    -29.47     24.00
   25.0365     55.45     59.11    -30.66     24.00
   25.0467     55.59     59.01    -30.43     24.00
   25.0569     57.25     58.92    -28.67     24.00
   25.0670     55.65     58.83    -30.18     24.00
   25.0772     56.33     58.74    -29.41     24.00
   25.0874     55.90     58.64    -29.75     24.00
   25.0975     55.38     58.55    -30.18     24.00
   25.1077     55.79     58.46    -29.67     24.00
   25.1178     56.45     58.37    -28.92     24.00
   25.1280     55.33     58.28    -29.95     24.00
   25.1382     53.99     58.18    -31.20     24.00
   25.1483     55.64     58.09    -29.46     24.00
   25.1585     55.70     58.00    -29.31     24.00
   25.1687     56.35     57.91    -28.56     24.00
   25.1788     54.91     57.82    -29.91     24.00
   25.1890     55.15     57.73    -29.58     24.00
   25.1992     54.99     57.64    -29.65     24.00
   25.2093     55.58     57.55    -28.97     24.00
   25.2195     55.23     57.46    -29.23     24.00
   25.2297     55.18     57.37    -29.19     24.00
   25.2398     55.16     57.28    -29.12     24.00
   25.2500     53.96     57.19    -30.23     24.00
   25.2601     55.79     57.10    -28.31     24.00
   25.2703     55.01     57.01    -29.00     24.00
   25.2805     54.98     56.92    -28.94     24.00
   25.2906     55.99     56.83    -27.84     24.00
   25.3008     54.45     56.74    -29.29     24.00
   25.3110     55.24     56.65    -28.41     24.00
   25.3211     55.57     56.56    -27.99     24.00
   25.3313     54.46     56.47    -29.01     24.00
   25.3415     53.38     56.38    -30.00     24.00
   25.3516     55.80     56.29    -27.50     24.00
   25.3618     54.08     56.20    -29.13     24.00
   25.3720     55.01     56.11    -28.11     24.00
   25.3821     54.78     56.03    -28.25     24.00
   25.3923     54.04     55.94    -28.90     24.00
   25.4024     54.15     55.85    -28.70     24.00
   25.4126     54.84     55.76    -27.93     24.00
   25.4228     54.49     55.67    -28.19     24.00
   25.4329     54.21     55.59    -28.38     24.00
   25.4431     53.80     55.50    -28.70     24.00
   25.4533     54.40     55.41    -28.02     24.00
   25.4634     53.15     55.32    -29.18     24.00
   25.4736     54.95     55.24    -27.29     24.00
   25.4838     54.38     55.15    -27.77     24.00
   25.4939     54.98     55.06    -27.09     24.00
   25.5041     53.73     54.98    -28.25     24.00
   25.5143     54.16     54.89    -27.73     24.00
   25.5244     53.34     54.80    -28.47     24.00
   25.5346     54.80     54.72    -26.92     24.00
   25.5448     53.94     54.63    -27.70     24.00
   25.5549     53.45     54.55    -28.10     24.00
   25.5651     53.10     54.46    -28.36     24.00
   25.5752     53.85     54.37    -27.53     24.00
   25.5854     54.13     54.29    -27.16     24.00
   25.5956     53.26     54.20    -27.95     24.00
   25.6057     53.17     54.12    -27.95     24.00
   25.6159     53.99     54.03    -27.05     24.00
   25.6261     52.95     53.95    -28.00     24.00
   25.6362     53.50     53.86    -27.37     24.00
   25.6464     54.15     53.78    -26.63     24.00
   25.6566     53.48     53.69    -27.22     24.00
   25.6667     51.90     53.61    -28.71     24.00
   25.6769     53.31     53.53    -27.22     24.00
   25.6871     54.00     53.44    -26.44     24.00
   25.6972     53.85     53.36    -26.51     24.00
   25.7074     52.96     53.27    -27.32     24.00
   25.7175     54.04     53.19    -26.15     24.00
   25.7277     52.71     53.11    -27.40     24.00
   25.7379     52.68     53.02    -27.35     24.00
   25.7480     52.68     52.94    -27.26     24.00
   25.7582     54.13     52.86    -25.73     24.00
   25.7684     52.92     52.77    -26.86     24.00
   25.7785     52.64     52.69    -27.06     24.00
   25.7887     53.30     52.61    -26.31     24.00
   25.7989     52.25     52.53    -27.28     24.00
   25.8090     51.91     52.44    -27.54     24.00
   25.8192     52.34     52.36    -27.03     24.00
   25.8294     52.92     52.28    -26.36     24.00
   25.8395     52.78     52.20    -26.42     24.00
   25.8497     51.66     52.12    -27.46     24.00
   25.8599     52.12     52.03    -26.92     24.00
   25.8700     51.34     51.95    -27.62     24.00
   25.8802     50.93     51.87    -27.95     24.00
   25.8903     52.49     51.79    -26.31     24.00
   25.9005     52.76     51.71    -25.95     24.00
   25.9107     51.79     51.63    -26.84     24.00
   25.9208     50.07     51.55    -28.48     24.00
   25.9310     52.46     51.47    -26.01     24.00
   25.9412     51.47     51.39    -26.92     24.00
   25.9513     51.43     51.31    -26.88     24.00
   25.9615     52.16     51.23    -26.07     24.00
   25.9717     52.37     51.15    -25.78     24.00
   25.9818     52.97     51.07    -25.10     24.00
   25.9920     51.78     50.99    -26.21     24.00
   26.0022     51.90     50.91    -26.01     24.00
   26.0123     51.51     50.83    -26.33     24.00
   26.0225     50.68     50.75    -27.08     24.00
   26.0326     50.01     50.67    -27.67     24.00
   26.0428     51.17     50.60    -26.43     24.00
   26.0530     50.48     50.52    -27.04     24.00
   26.0631     50.51     50.44    -26.93     24.00
   26.0733     50.34     50.36    -27.03     24.00
   26.0835     50.77     50.28    -26.52     24.00
   26.0936     50.62     50.21    -26.59     24.00
   26.1038     50.26     50.13    -26.87     24.00
   26.1140     49.98     50.05    -27.07     24.00
   26.1241     50.21     49.97    -26.77     24.00
   26.1343     50.93     49.90    -25.97     24.00
   26.1445     50.90     49.82    -25.92     24.00
   26.1546     50.43     49.74    -26.32     24.00
   26.1648     49.55     49.67    -27.12     24.00
   26.1750     50.29     49.59    -26.30     24.00
   26.1851     49.98     49.51    -26.54     24.00
   26.1953     50.62     49.44    -25.82     24.00
   26.2054     50.48     49.36    -25.89     24.00
   26.2156     49.68     49.29    -26.61     24.00
   26.2258     49.31     49.21    -26.91     24.00
   26.2359     50.02     49.14    -26.12     24.00
   26.2461     49.72     49.06    -26.35     24.00
   26.2563     51.23     48.99    -24.76     24.00
   26.2664     49.73     48.91    -26.19     24.00
   26.2766     48.55     48.84    -27.29     24.00
   26.2868     49.91     48.76    -25.86     24.00
   26.2969     50.29     48.69    -25.40     24.00
   26.3071     49.74     48.62    -25.88     24.00
   26.3173     49.46     48.54    -26.09     24.00
   26.3274     49.66     48.47    -25.81     24.00
   26.3376     50.17     48.40    -25.23     24.00
   26.3477     49.66     48.32    -25.67     24.00
   26.3579     48.55     48.25    -26.71     24.00
   26.3681     49.57     48.18    -25.61     24.00
   26.3782     49.09     48.11    -26.02     24.00
   26.3884     48.80     48.03    -26.24     24.00
   26.3986     49.12     47.96    -25.85     24.00
   26.4087     48.78     47.89    -26.12     24.00
   26.4189     49.10     47.82    -25.72     24.00
   26.4291     48.89     47.75    -25.86     24.00
   26.4392     49.06     47.68    -25.62     24.00
   26.4494     49.25     47.61    -25.36     24.00
   26.4596     48.63     47.54    -25.91     24.00
   26.4697     47.34     47.47    -27.13     24.00
   26.4799     48.62     47.40    -25.78     24.00
   26.4901     49.65     47.33    -24.68     24.00
   26.5002     48.91     47.26    -25.35     24.00
   26.5104     48.72     47.19    -25.47     24.00
   26.5205     48.84     47.12    -25.29     24.00
   26.5307     48.84     47.05    -25.22     24.00
   26.5409     47.41     46.99    -26.58     24.00
   26.5510     48.23     46.92    -25.69     24.00
   26.5612     47.77     46.85    -26.08     24.00
   26.5714     48.18     46.78    -25.61     24.00
   26.5815     48.35     46.72    -25.37     24.00
   26.5917     47.55     46.65    -26.10     24.00
   26.6019     48.04     46.58    -25.55     24.00
   26.6120     48.04     46.52    -25.48     24.00
   26.6222     48.02     46.45    -25.44     24.00
   26.6324     47.77     46.39    -25.62     24.00
   26.6425     47.49     46.32    -25.84     24.00
   26.6527     46.90     46.26    -26.36     24.00
   26.6628     47.30     46.20    -25.90     24.00
   26.6730     48.26     46.13    -24.88     24.00
   26.6832     46.93     46.07    -26.15     24.00
   26.6933     46.97     46.01    -26.04     24.00
   26.7035     48.04     45.95    -24.91     24.00
   26.7137     47.89     45.89    -25.00     24.00
   26.7238     48.34     45.83    -24.49     24.00
   26.7340     48.18     45.77    -24.59     24.00
   26.7442     47.93     45.71    -24.78     24.00
   26.7543     47.87     45.65    -24.78     24.00
   26.7645     46.93     45.59    -25.66     24.00
   26.7747     48.56     45.53    -23.98     24.00
   26.7848     48.23     45.48    -24.25     24.00
   26.7950     47.91     45.42    -24.51     24.00
   26.8052     48.17     45.36    -24.20     24.00
   26.8153     47.62     45.31    -24.69     24.00
   26.8255     47.07     45.26    -25.19     24.00
   26.8356     47.86     45.20    -24.35     24.00
   26.8458     48.15     45.15    -24.00     24.00
   26.8560     47.00     45.10    -25.10     24.00
   26.8661     48.21     45.05    -23.84     24.00
   26.8763     47.48     45.00    -24.52     24.00
   26.8865     47.60     44.95    -24.35     24.00
   26.8966     46.92     44.90    -24.99     24.00
   26.9068     47.70     44.86    -24.16     24.00
   26.9170     46.54     44.81    -25.27     24.00
   26.9271     47.39     44.77    -24.38     24.00
   26.9373     46.97     44.72    -24.76     24.00
   26.9475     46.63     44.68    -25.05     24.00
   26.9576     47.23     44.64    -24.41     24.00
   26.9678     48.04     44.60    -23.56     24.00
   26.9779     45.98     44.56    -25.59     24.00
   26.9881     46.98     44.52    -24.55     24.00
   26.9983     47.15     44.49    -24.34     24.00
   27.0084     47.94     44.46    -23.52     24.00
   27.0186     47.25     44.42    -24.18     24.00
   27.0288     47.77     44.39    -23.63     24.00
   27.0389     47.26     44.36    -24.11     24.00
   27.0491     46.87     44.34    -24.47     24.00
   27.0593     47.35     44.31    -23.96     24.00
   27.0694     47.05     44.29    -24.24     24.00
   27.0796     47.98     44.27    -23.29     24.00
   27.0898     46.38     44.25    -24.87     24.00
   27.0999     47.71     44.23    -23.52     24.00
   27.1101     46.85     44.21    -24.37     24.00
   27.1202     46.76     44.20    -24.44     24.00
   27.1304     46.57     44.19    -24.62     24.00
   27.1406     47.80     44.18    -23.38     24.00
   27.1507     46.02     44.17    -25.16     24.00
   27.1609     47.73     44.17    -23.44     24.00
   27.1711     45.47     44.17    -25.70     24.00
   27.1812     46.24     44.17    -24.93     24.00
   27.1914     46.66     44.17    -24.52     24.00
   27.2016     46.71     44.18    -24.47     24.00
   27.2117     47.47     44.19    -23.72     24.00
   27.2219     46.46     44.20    -24.75     24.00
   27.2321     46.41     44.22    -24.81     24.00
   27.2422     46.29     44.24    -24.95     24.00
   27.2524     46.39     44.26    -24.87     24.00
   27.2626     46.27     44.28    -25.02     24.00
   27.2727     46.35     44.31    -24.97     24.00
   27.2829     46.87     44.34    -24.48     24.00
   27.2930     47.10     44.38    -24.28     24.00
   27.3032     47.29     44.42    -24.13     24.00
   27.3134     46.97     44.46    -24.50     24.00
   27.3235     47.79     44.51    -23.72     24.00
   27.3337     47.49     44.56    -24.07     24.00
   27.3439     46.79     44.62    -24.83     24.00
   27.3540     47.06     44.67    -24.62     24.00
   27.3642     46.25     44.74    -25.49     24.00
   27.3744     47.12     44.81    -24.69     24.00
   27.3845     46.45     44.88    -25.43     24.00
   27.3947     47.29     44.96    -24.67     24.00
   27.4049     47.82     45.04    -24.22     24.00
   27.4150     47.84     45.12    -24.29     24.00
   27.4252     47.61     45.21    -24.61     24.00
   27.4353     47.40     45.31    -24.91     24.00
   27.4455     46.99     45.41    -25.42     24.00
   27.4557     46.72     45.51    -25.80     24.00
   27.4658     47.05     45.62    -25.58     24.00
   27.4760     47.42     45.74    -25.32     24.00
   27.4862     48.15     45.86    -24.71     24.00
   27.4963     47.96     45.99    -25.03     24.00
   27.5065     47.58     46.12    -25.54     24.00
   27.5167     48.12     46.25    -25.14     24.00
   27.5268     47.54     46.40    -25.86     24.00
   27.5370     47.99     46.54    -25.56     24.00
   27.5472     48.12     46.70    -25.58     24.00
   27.5573     47.87     46.86    -25.99     24.00
   27.5675     49.55     47.02    -24.47     24.00
   27.5777     47.74     47.19    -26.45     24.00
   27.5878     48.87     47.37    -25.50     24.00
   27.5980     47.62     47.55    -26.93     24.00
   27.6081     48.05     47.73    -26.69     24.00
   27.6183     47.96     47.93    -26.97     24.00
   27.6285     47.71     48.13    -27.42     24.00
   27.6386     48.29     48.33    -27.05     24.00
   27.6488     48.35     48.54    -27.20     24.00
   27.6590     48.99     48.76    -26.77     24.00
   27.6691     48.91     48.98    -27.08     24.00
   27.6793     49.13     49.21    -27.09     24.00
   27.6895     49.63     49.45    -26.82     24.00
   27.6996     49.59     49.68    -27.10     24.00
   27.7098     49.74     49.93    -27.19     24.00
   27.7200     49.80     50.18    -27.39     24.00
   27.7301     49.96     50.44    -27.48     24.00
   27.7403     50.38     50.70    -27.33     24.00
   27.7504     50.21     50.97    -27.76     24.00
   27.7606     51.69     51.24    -26.56     24.00
   27.7708     50.70     51.52    -27.83     24.00
   27.7809     51.26     51.80    -27.55     24.00
   27.7911     52.48     52.09    -26.62     24.00
   27.8013     50.96     52.39    -28.43     24.00
   27.8114     50.78     52.69    -28.91     24.00
   27.8216     51.98     52.99    -28.02     24.00
   27.8318     53.58     53.30    -26.73     24.00
   27.8419     51.62     53.61    -29.00     24.00
   27.8521     53.23     53.93    -27.71     24.00
   27.8623     53.52     54.25    -27.74     24.00
   27.8724     52.88     54.58    -28.70     24.00
   27.8826     53.33     54.91    -28.58     24.00
   27.8928     54.41     55.24    -27.84     24.00
   27.9029     53.71     55.58    -28.87     24.00
   27.9131     53.88     55.92    -29.05     24.00
   27.9232     55.24     56.26    -28.03     24.00
   27.9334     55.44     56.61    -28.17     24.00
   27.9436     54.23     56.96    -29.73     24.00
   27.9537     55.24     57.31    -29.07     24.00
   27.9639     55.26     57.66    -29.41     24.00
   27.9741     56.59     58.02    -28.44     24.00
   27.9842     56.20     58.38    -29.18     24.00
   27.9944     56.80     58.74    -28.94     24.00
   28.0046     56.48     59.10    -29.62     24.00
   28.0147     57.15     59.46    -29.31     24.00
   28.0249     57.60     59.82    -29.22     24.00
   28.0351     57.65     60.18    -29.54     24.00
   28.0452     58.43     60.54    -29.12     24.00
   28.0554     58.57     60.91    -29.34     24.00
   28.0655     57.84     61.26    -30.43     24.00
   28.0757     60.40     61.63    -28.23     24.00
   28.0859     59.99     61.99    -29.00     24.00
   28.0960     60.00     62.34    -29.34     24.00
   28.1062     60.50     62.70    -29.20     24.00
   28.1164     61.84     63.05    -28.22     24.00
   28.1265     61.63     63.40    -28.77     24.00
   28.1367     62.13     63.75    -28.62     24.00
   28.1469     62.54     64.10    -28.56     24.00
   28.1570     63.95     64.43    -27.49     24.00
   28.1672     63.67     64.77    -28.11     24.00
   28.1774     64.22     65.11    -27.89     24.00
   28.1875     63.38     65.43    -29.06     24.00
   28.1977     63.92     65.76    -28.84     24.00
   28.2079     64.52     66.07    -28.56     24.00
   28.2180     66.10     66.38    -27.29     24.00
   28.2282     66.99     66.69    -26.71     24.00
   28.2383     66.74     66.99    -27.25     24.00
   28.2485     66.05     67.28    -28.24     24.00
   28.2587     66.43     67.57    -28.14     24.00
   28.2688     67.74     67.85    -27.11     24.00
   28.2790     67.17     68.12    -27.95     24.00
   28.2892     68.30     68.38    -27.08     24.00
   28.2993     68.30     68.63    -27.33     24.00
   28.3095     68.09     68.88    -27.79     24.00
   28.3197     70.32     69.11    -25.80     24.00
   28.3298     71.02     69.34    -25.32     24.00
   28.3400     71.04     69.55    -25.52     24.00
   28.3502     70.42     69.76    -26.34     24.00
   28.3603     71.10     69.95    -25.86     24.00
   28.3705     71.93     70.14    -25.21     24.00
   28.3806     71.42     70.31    -25.90     24.00
   28.3908     72.45     70.48    -25.03     24.00
   28.4010     71.24     70.63    -26.39     24.00
   28.4111     71.61     70.77    -26.16     24.00
   28.4213     72.51     70.90    -25.39     24.00
   28.4315     72.70     71.01    -25.32     24.00
   28.4416     72.43     71.12    -25.69     24.00
   28.4518     72.11     71.21    -26.10     24.00
   28.4620     72.51     71.29    -25.78     24.00
   28.4721     74.18     71.36    -24.18     24.00
   28.4823     73.80     71.41    -24.61     24.00
   28.4925     72.77     71.45    -25.69     24.00
   28.5026     71.51     71.48    -26.97     24.00
   28.5128     73.91     71.50    -24.59     24.00
   28.5230     73.24     71.50    -25.26     24.00
   28.5331     73.79     71.49    -24.70     24.00
   28.5433     73.94     71.47    -24.53     24.00
   28.5534     71.59     71.43    -26.85     24.00
   28.5636     72.72     71.38    -25.67     24.00
   28.5738     73.17     71.32    -25.16     24.00
   28.5839     73.53     71.25    -24.72     24.00
   28.5941     71.91     71.16    -26.26     24.00
   28.6043     74.40     71.07    -23.67     24.00
   28.6144     73.40     70.96    -24.56     24.00
   28.6246     73.10     70.84    -24.74     24.00
   28.6348     71.93     70.70    -25.78     24.00
   28.6449     72.52     70.56    -25.04     24.00
   28.6551     71.51     70.40    -25.89     24.00
   28.6653     70.79     70.23    -26.45     24.00
   28.6754     71.02     70.06    -26.04     24.00
   28.6856     71.26     69.87    -25.61     24.00
   28.6957     71.70     69.67    -24.97     24.00
   28.7059     69.27     69.46    -27.19     24.00
   28.7161     70.41     69.24    -25.83     24.00
   28.7262     69.45     69.01    -26.57     24.00
   28.7364     69.41     68.77    -26.37     24.00
   28.7466     68.51     68.53    -27.02     24.00
   28.7567     69.42     68.28    -25.86     24.00
   28.7669     68.23     68.01    -26.79     24.00
   28.7771     69.24     67.74    -25.51     24.00
   28.7872     68.17     67.47    -26.30     24.00
   28.7974     67.18     67.18    -27.00     24.00
   28.8076     65.63     66.89    -28.26     24.00
   28.8177     67.77     66.59    -25.83     24.00
   28.8279     67.10     66.29    -26.19     24.00
   28.8381     66.37     65.98    -26.61     24.00
   28.8482     65.90     65.66    -26.77     24.00
   28.8584     64.98     65.34    -27.37     24.00
   28.8685     64.70     65.02    -27.33     24.00
   28.8787     64.41     64.69    -27.29     24.00
   28.8889     64.32     64.36    -27.04     24.00
   28.8990     62.57     64.02    -28.46     24.00
   28.9092     62.33     63.68    -28.36     24.00
   28.9194     63.22     63.34    -27.13     24.00
   28.9295     63.26     63.00    -26.74     24.00
   28.9397     62.00     62.65    -27.66     24.00
   28.9499     61.82     62.30    -27.49     24.00
   28.9600     60.90     61.95    -28.06     24.00
   28.9702     60.68     61.60    -27.92     24.00
   28.9804     59.51     61.25    -28.74     24.00
   28.9905     60.04     60.90    -27.86     24.00
   29.0007     59.62     60.54    -27.93     24.00
   29.0108     59.55     60.19    -27.64     24.00
   29.0210     59.57     59.84    -27.27     24.00
   29.0312     58.91     59.48    -27.58     24.00
   29.0413     58.24     59.13    -27.90     24.00
   29.0515     57.95     58.78    -27.83     24.00
   29.0617     57.99     58.43    -27.44     24.00
   29.0718     57.72     58.08    -27.37     24.00
   29.0820     57.15     57.74    -27.59     24.00
   29.0922     56.59     57.39    -27.80     24.00
   29.1023     55.87     57.05    -28.18     24.00
   29.1125     55.71     56.71    -28.00     24.00
   29.1227     54.50     56.37    -28.88     24.00
   29.1328     55.11     56.04    -27.93     24.00
   29.1430     54.90     55.71    -27.81     24.00
   29.1531     54.41     55.38    -27.98     24.00
   29.1633     52.61     55.06    -29.45     24.00
   29.1735     55.01     54.73    -26.73     24.00
   29.1836     54.39     54.42    -27.03     24.00
   29.1938     52.95     54.11    -28.16     24.00
   29.2040     54.31     53.79    -26.49     24.00
   29.2141     52.49     53.49    -28.01     24.00
   29.2243     52.04     53.19    -28.15     24.00
   29.2345     51.86     52.89    -28.04     24.00
   29.2446     52.38     52.60    -27.23     24.00
   29.2548     51.71     52.31    -27.61     24.00
   29.2650     51.96     52.03    -27.07     24.00
   29.2751     51.15     51.75    -27.61     24.00
   29.2853     51.41     51.48    -27.07     24.00
   29.2955     51.10     51.21    -27.12     24.00
   29.3056     50.43     50.95    -27.52     24.00
   29.3158     50.48     50.69    -27.21     24.00
   29.3259     49.91     50.44    -27.53     24.00
   29.3361     50.16     50.19    -27.03     24.00
   29.3463     49.15     49.95    -27.80     24.00
   29.3564     49.39     49.71    -27.32     24.00
   29.3666     49.91     49.47    -26.57     24.00
   29.3768     48.97     49.25    -27.28     24.00
   29.3869     49.24     49.02    -26.79     24.00
   29.3971     48.96     48.81    -26.85     24.00
   29.4073     47.54     48.59    -28.06     24.00
   29.4174     48.66     48.38    -26.73     24.00
   29.4276     48.65     48.18    -26.53     24.00
   29.4378     47.35     47.98    -27.64     24.00
   29.4479     48.31     47.79    -26.48     24.00
   29.4581     47.43     47.60    -27.18     24.00
   29.4682     47.30     47.42    -27.12     24.00
   29.4784     47.08     47.24    -27.16     24.00
   29.4886     46.78     47.06    -27.29     24.00
   29.4987     45.72     46.90    -28.18     24.00
   29.5089     47.82     46.73    -25.91     24.00
   29.5191     46.66     46.57    -26.91     24.00
   29.5292     46.39     46.41    -27.03     24.00
   29.5394     46.29     46.26    -26.97     24.00
   29.5496     45.77     46.11    -27.35     24.00
   29.5597     45.54     45.97    -27.43     24.00
   29.5699     45.85     45.83    -26.98     24.00
   29.5801     45.30     45.69    -27.40     24.00
   29.5902     44.89     45.56    -27.68     24.00
   29.6004     45.23     45.43    -27.21     24.00
   29.6106     45.15     45.31    -27.16     24.00
   29.6207     44.82     45.19    -27.37     24.00
   29.6309     45.20     45.07    -26.87     24.00
   29.6410     45.24     44.96    -26.72     24.00
   29.6512     44.33     44.84    -27.52     24.00
   29.6614     44.08     44.74    -27.66     24.00
   29.6715     46.21     44.63    -25.43     24.00
   29.6817     44.10     44.53    -27.43     24.00
   29.6919     44.09     44.43    -27.34     24.00
   29.7020     43.87     44.33    -27.47     24.00
   29.7122     42.85     44.24    -28.39     24.00
   29.7224     43.94     44.15    -27.21     24.00
   29.7325     44.49     44.06    -26.57     24.00
   29.7427     44.20     43.97    -26.77     24.00
   29.7529     44.09     43.88    -26.80     24.00
   29.7630     44.20     43.80    -26.61     24.00
   29.7732     44.09     43.72    -26.63     24.00
   29.7833     43.29     43.64    -27.36     24.00
   29.7935     43.82     43.56    -26.75     24.00
   29.8037     44.29     43.49    -26.20     24.00
   29.8138     43.39     43.41    -27.03     24.00
   29.8240     43.87     43.34    -26.47     24.00
   29.8342     42.26     43.27    -28.01     24.00
   29.8443     41.70     43.20    -28.50     24.00
   29.8545     42.91     43.13    -27.22     24.00
   29.8647     41.96     43.06    -28.10     24.00
   29.8748     43.11     42.99    -26.89     24.00
   29.8850     42.74     42.93    -27.19     24.00
   29.8952     43.67     42.86    -26.19     24.00
   29.9053     43.13     42.80    -26.67     24.00
   29.9155     43.27     42.73    -26.47     24.00
   29.9257     41.77     42.67    -27.90     24.00
   29.9358     43.12     42.60    -26.49     24.00
   29.9460     43.76     42.54    -25.78     24.00
   29.9561     42.16     42.48    -27.32     24.00
   29.9663     42.36     42.42    -27.06     24.00
   29.9765     42.74     42.35    -26.62     24.00
   29.9866     42.29     42.29    -27.01     24.00
   29.9968     43.04     42.23    -26.19     24.00
   30.0070     42.59     42.17    -26.58     24.00
   30.0171     42.39     42.11    -26.72     24.00
   30.0273     42.21     42.04    -26.84     24.00
   30.0375     40.77     41.98    -28.21     24.00
   30.0476     41.87     41.92    -27.05     24.00
   30.0578     41.09     41.85    -27.77     24.00
   30.0680     41.68     41.79    -27.12     24.00
   30.0781     42.35     41.73    -26.38     24.00
   30.0883     42.44     41.66    -26.23     24.00
   30.0984     41.59     41.60    -27.01     24.00
   30.1086     41.10     41.54    -27.44     24.00
   30.1188     41.96     41.47    -26.51     24.00
   30.1289     42.40     41.40    -26.01     24.00
   30.1391     40.96     41.34    -27.38     24.00
   30.1493     40.68     41.27    -27.60     24.00
   30.1594     41.75     41.20    -26.46     24.00
   30.1696     40.73     41.14    -27.41     24.00
   30.1798     41.38     41.07    -26.69     24.00
   30.1899     41.41     41.00    -26.59     24.00
   30.2001     39.85     40.93    -28.08     24.00
   30.2103     41.18     40.86    -26.68     24.00
   30.2204     40.80     40.79    -26.99     24.00
   30.2306     40.66     40.71    -27.06     24.00
   30.2408     40.08     40.64    -27.57     24.00
   30.2509     39.93     40.57    -27.64     24.00
   30.2611     39.45     40.49    -28.05     24.00
   30.2712     39.99     40.42    -27.43     24.00
   30.2814     39.97     40.34    -27.38     24.00
   30.2916     39.08     40.27    -28.19     24.00
   30.3017     40.29     40.19    -26.90     24.00
   30.3119     40.21     40.11    -26.91     24.00
   30.3221     38.96     40.03    -28.08     24.00
   30.3322     39.35     39.96    -27.61     24.00
   30.3424     39.86     39.88    -27.02     24.00
   30.3526     38.66     39.79    -28.14     24.00
   30.3627     39.51     39.71    -27.21     24.00
   30.3729     39.88     39.63    -26.76     24.00
   30.3831     38.20     39.55    -28.35     24.00
   30.3932     39.15     39.47    -27.32     24.00
   30.4034     38.74     39.38    -27.65     24.00
   30.4135     39.73     39.30    -26.57     24.00
   30.4237     38.80     39.21    -27.42     24.00
   30.4339     39.21     39.13    -26.92     24.00
   30.4440     38.07     39.04    -27.97     24.00
   30.4542     38.06     38.95    -27.90     24.00
   30.4644     37.25     38.86    -28.62     24.00
   30.4745     38.14     38.78    -27.64     24.00
   30.4847     37.90     38.69    -27.79     24.00
   30.4949     38.08     38.60    -27.52     24.00
   30.5050     37.74     38.51    -27.77     24.00
   30.5152     36.98     38.42    -28.44     24.00
   30.5254     37.54     38.33    -27.79     24.00
   30.5355     36.62     38.24    -28.62     24.00
   30.5457     37.60     38.15    -27.55     24.00
   30.5559     36.84     38.05    -28.22     24.00
   30.5660     36.15     37.96    -28.82     24.00
   30.5762     36.55     37.87    -28.32     24.00
   30.5863     36.02     37.78    -28.76     24.00
   30.5965     36.01     37.68    -28.68     24.00
   30.6067     36.46     37.59    -28.13     24.00
   30.6168     36.09     37.50    -28.41     24.00
   30.6270     37.07     37.40    -27.34     24.00
   30.6372     35.93     37.31    -28.38     24.00
   30.6473     36.34     37.21    -27.88     24.00
   30.6575     35.71     37.12    -28.41     24.00
   30.6677     36.38     37.02    -27.65     24.00
   30.6778     36.12     36.93    -27.81     24.00
   30.6880     35.93     36.83    -27.91     24.00
   30.6982     35.51     36.74    -28.23     24.00
   30.7083     35.88     36.64    -27.77     24.00
   30.7185     35.04     36.55    -28.51     24.00
   30.7286     35.62     36.45    -27.84     24.00
   30.7388     35.30     36.36    -28.06     24.00
   30.7490     35.61     36.26    -27.65     24.00
   30.7591     34.62     36.17    -28.55     24.00
   30.7693     35.65     36.07    -27.42     24.00
   30.7795     34.63     35.98    -28.35     24.00
   30.7896     35.88     35.88    -27.00     24.00
   30.7998     35.65     35.79    -27.14     24.00
   30.8100     34.71     35.69    -27.98     24.00
   30.8201     35.65     35.60    -26.95     24.00
   30.8303     36.08     35.50    -26.43     24.00
   30.8405     34.48     35.41    -27.93     24.00
   30.8506     34.96     35.31    -27.36     24.00
   30.8608     34.70     35.22    -27.52     24.00
   30.8710     34.96     35.13    -27.17     24.00
   30.8811     35.36     35.03    -26.68     24.00
   30.8913     34.33     34.94    -27.61     24.00
   30.9014     33.65     34.85    -28.20     24.00
   30.9116     34.29     34.75    -27.47     24.00
   30.9218     34.13     34.66    -27.54     24.00
   30.9319     35.43     34.57    -26.15     24.00
   30.9421     34.09     34.48    -27.39     24.00
   30.9523     35.18     34.39    -26.21     24.00
   30.9624     34.48     34.30    -26.82     24.00
   30.9726     34.90     34.21    -26.31     24.00
   30.9828     34.40     34.12    -26.72     24.00
   30.9929     33.67     34.03    -27.37     24.00
   31.0031     34.20     33.94    -26.75     24.00
   31.0133     34.55     33.86    -26.31     24.00
   31.0234     32.77     33.77    -28.00     24.00
   31.0336     34.09     33.68    -26.60     24.00
   31.0437     34.41     33.60    -26.19     24.00
   31.0539     33.12     33.51    -27.39     24.00
   31.0641     33.57     33.43    -26.86     24.00
   31.0742     33.39     33.34    -26.96     24.00
   31.0844     33.20     33.26    -27.06     24.00
   31.0946     33.76     33.17    -26.42     24.00
   31.1047     33.35     33.09    -26.75     24.00
   31.1149     32.99     33.01    -27.02     24.00
   31.1251     33.97     32.93    -25.96     24.00
   31.1352     33.90     32.85    -25.95     24.00
   31.1454     32.87     32.77    -26.90     24.00
   31.1556     32.98     32.69    -26.71     24.00
   31.1657     33.21     32.61    -26.41     24.00
   31.1759     33.59     32.54    -25.95     24.00
   31.1860     33.52     32.46    -25.94     24.00
   31.1962     33.72     32.38    -25.67     24.00
   31.2064     32.61     32.31    -26.70     24.00
   31.2165     33.60     32.23    -25.64     24.00
   31.2267     33.82     32.16    -25.34     24.00
   31.2369     33.12     32.09    -25.97     24.00
   31.2470     32.91     32.02    -26.11     24.00
   31.2572     33.69     31.95    -25.26     24.00
   31.2674     32.88     31.88    -26.00     24.00
   31.2775     32.37     31.81    -26.44     24.00
   31.2877     32.73     31.74    -26.01     24.00
   31.2979     32.83     31.67    -25.84     24.00
   31.3080     32.76     31.60    -25.85     24.00
   31.3182     32.25     31.54    -26.29     24.00
   31.3284     32.64     31.47    -25.84     24.00
   31.3385     33.01     31.41    -25.40     24.00
   31.3487     33.85     31.35    -24.50     24.00
   31.3588     33.07     31.28    -25.22     24.00
   31.3690     31.99     31.22    -26.24     24.00
   31.3792     32.94     31.16    -25.23     24.00
   31.3893     33.05     31.10    -25.06     24.00
   31.3995     32.54     31.04    -25.51     24.00
   31.4097     32.76     30.99    -25.23     24.00
   31.4198     32.37     30.93    -25.56     24.00
   31.4300     32.59     30.87    -25.29     24.00
   31.4402     31.56     30.82    -26.26     24.00
   31.4503     32.89     30.77    -24.88     24.00
   31.4605     33.19     30.71    -24.53     24.00
   31.4707     31.82     30.66    -25.84     24.00
   31.4808     31.85     30.61    -25.76     24.00
   31.4910     32.50     30.56    -25.06     24.00
   31.5011     32.60     30.51    -24.92     24.00
   31.5113     32.59     30.46    -24.88     24.00
   31.5215     32.76     30.42    -24.66     24.00
   31.5316     32.66     30.37    -24.71     24.00
   31.5418     32.49     30.32    -24.84     24.00
   31.5520     32.83     30.28    -24.45     24.00
   31.5621     32.80     30.24    -24.44     24.00
   31.5723     31.43     30.20    -25.77     24.00
   31.5825     32.59     30.15    -24.57     24.00
   31.5926     32.62     30.11    -24.50     24.00
   31.6028     31.96     30.07    -25.12     24.00
   31.6130     32.21     30.04    -24.83     24.00
   31.6231     32.98     30.00    -24.02     24.00
   31.6333     32.31     29.96    -24.66     24.00
   31.6435     32.77     29.93    -24.16     24.00
   31.6536     32.32     29.89    -24.58     24.00
   31.6638     32.18     29.86    -24.68     24.00
   31.6739     32.17     29.83    -24.66     24.00
   31.6841     33.39     29.80    -23.41     24.00
   31.6943     32.20     29.76    -24.57     24.00
   31.7044     31.76     29.74    -24.98     24.00
   31.7146     31.98     29.71    -24.73     24.00
   31.7248     31.91     29.68    -24.77     24.00
   31.7349     32.09     29.65    -24.57     24.00
   31.7451     32.69     29.63    -23.94     24.00
   31.7553     31.75     29.60    -24.86     24.00
   31.7654     31.53     29.58    -25.05     24.00
   31.7756     32.32     29.56    -24.24     24.00
   31.7858     32.12     29.53    -24.42     24.00
   31.7959     32.18     29.51    -24.34     24.00
   31.8061     31.68     29.49    -24.82     24.00
   31.8162     32.35     29.47    -24.13     24.00
   31.8264     31.73     29.45    -24.73     24.00
   31.8366     31.71     29.44    -24.73     24.00
   31.8467     32.21     29.42    -24.22     24.00
   31.8569     31.80     29.41    -24.61     24.00
   31.8671     32.13     29.39    -24.27     24.00
   31.8772     32.05     29.38    -24.33     24.00
   31.8874     32.26     29.37    -24.11     24.00
   31.8976     32.04     29.35    -24.32     24.00
   31.9077     32.34     29.34    -24.01     24.00
   31.9179     32.49     29.33    -23.85     24.00
   31.9281     32.20     29.32    -24.13     24.00
   31.9382     32.52     29.31    -23.80     24.00
   31.9484     31.36     29.31    -24.95     24.00
   31.9586     32.56     29.30    -23.74     24.00
   31.9687     32.25     29.30    -24.05     24.00
   31.9789     32.52     29.29    -23.77     24.00
   31.9890     31.73     29.29    -24.56     24.00
   31.9992     32.60     29.28    -23.69     24.00
   32.0094     32.46     29.28    -23.82     24.00
   32.0195     31.79     29.28    -24.49     24.00
   32.0297     32.29     29.28    -23.99     24.00
   32.0399     32.36     29.28    -23.92     24.00
   32.0500     33.49     29.28    -22.79     24.00
   32.0602     31.71     29.28    -24.58     24.00
   32.0704     32.01     29.28    -24.28     24.00
   32.0805     32.97     29.29    -23.32     24.00
   32.0907     32.14     29.29    -24.16     24.00
   32.1009     32.90     29.30    -23.40     24.00
   32.1110     33.34     29.30    -22.97     24.00
   32.1212     32.72     29.31    -23.59     24.00
   32.1313     32.79     29.32    -23.53     24.00
   32.1415     33.77     29.32    -22.56     24.00
   32.1517     32.94     29.33    -23.40     24.00
   32.1618     32.62     29.34    -23.73     24.00
   32.1720     31.69     29.35    -24.67     24.00
   32.1822     32.79     29.36    -23.58     24.00
   32.1923     34.28     29.37    -22.10     24.00
   32.2025     33.16     29.39    -23.23     24.00
   32.2127     31.86     29.40    -24.54     24.00
   32.2228     32.87     29.41    -23.55     24.00
   32.2330     33.03     29.43    -23.40     24.00
   32.2432     32.96     29.44    -23.48     24.00
   32.2533     32.50     29.46    -23.96     24.00
   32.2635     33.24     29.47    -23.24     24.00
   32.2737     32.98     29.49    -23.51     24.00
   32.2838     32.61     29.51    -23.90     24.00
   32.2940     33.35     29.52    -23.18     24.00
   32.3041     33.01     29.54    -23.54     24.00
   32.3143     33.02     29.56    -23.54     24.00
   32.3245     33.12     29.58    -23.46     24.00
   32.3346     33.27     29.60    -23.33     24.00
   32.3448     33.09     29.62    -23.53     24.00
   32.3550     33.33     29.64    -23.32     24.00
   32.3651     33.13     29.66    -23.54     24.00
   32.3753     32.66     29.69    -24.03     24.00
   32.3855     33.35     29.71    -23.36     24.00
   32.3956     32.90     29.73    -23.83     24.00
   32.4058     32.90     29.75    -23.86     24.00
   32.4160     33.07     29.78    -23.71     24.00
   32.4261     32.65     29.80    -24.16     24.00
   32.4363     33.18     29.83    -23.65     24.00
   32.4464     32.91     29.85    -23.95     24.00
   32.4566     31.92     29.88    -24.96     24.00
   32.4668     32.38     29.90    -24.53     24.00
   32.4769     33.15     29.93    -23.78     24.00
   32.4871     32.95     29.96    -24.01     24.00
   32.4973     33.57     29.98    -23.42     24.00
   32.5074     32.71     30.01    -24.31     24.00
   32.5176     32.51     30.04    -24.53     24.00
   32.5278     32.99     30.07    -24.08     24.00
   32.5379     33.42     30.10    -23.68     24.00
   32.5481     32.94     30.13    -24.19     24.00
   32.5583     33.57     30.15    -23.59     24.00
   32.5684     33.52     30.18    -23.67     24.00
   32.5786     33.91     30.21    -23.31     24.00
   32.5888     31.61     30.24    -25.64     24.00
   32.5989     32.93     30.27    -24.35     24.00
   32.6091     32.04     30.30    -25.27     24.00
   32.6192     33.52     30.33    -23.82     24.00
   32.6294     32.88     30.36    -24.49     24.00
   32.6396     32.39     30.39    -25.01     24.00
   32.6497     32.27     30.42    -25.16     24.00
   32.6599     32.35     30.46    -25.11     24.00
   32.6701     32.37     30.49    -25.12     24.00
   32.6802     33.56     30.52    -23.96     24.00
   32.6904     33.10     30.55    -24.45     24.00
   32.7006     32.58     30.58    -25.00     24.00
   32.7107     33.47     30.61    -24.14     24.00
   32.7209     33.52     30.64    -24.13     24.00
   32.7311     32.09     30.67    -25.59     24.00
   32.7412     32.23     30.70    -25.48     24.00
   32.7514     32.95     30.74    -24.79     24.00
   32.7615     31.77     30.77    -26.00     24.00
   32.7717     32.01     30.80    -25.79     24.00
   32.7819     32.69     30.83    -25.14     24.00
   32.7920     32.50     30.86    -25.36     24.00
   32.8022     33.53     30.89    -24.37     24.00
   32.8124     32.55     30.92    -25.38     24.00
   32.8225     33.24     30.95    -24.72     24.00
   32.8327     32.59     30.98    -25.40     24.00
   32.8429     32.79     31.01    -25.23     24.00
   32.8530     32.47     31.04    -25.58     24.00
   32.8632     31.59     31.07    -26.49     24.00
   32.8734     32.58     31.10    -25.53     24.00
   32.8835     31.97     31.13    -26.17     24.00
   32.8937     32.46     31.16    -25.71     24.00
   32.9039     32.54     31.19    -25.66     24.00
   32.9140     32.41     31.22    -25.81     24.00
   32.9242     32.27     31.25    -25.98     24.00
   32.9343     33.27     31.28    -25.01     24.00
   32.9445     32.35     31.31    -25.96     24.00
   32.9547     32.10     31.33    -26.24     24.00
   32.9648     32.71     31.36    -25.65     24.00
   32.9750     33.10     31.39    -25.29     24.00
   32.9852     32.32     31.41    -26.10     24.00
   32.9953     33.14     31.44    -25.30     24.00
   33.0055     32.85     31.46    -25.62     24.00
   33.0157     31.77     31.49    -26.72     24.00
   33.0258     32.64     31.51    -25.88     24.00
   33.0360     32.96     31.54    -25.58     24.00
   33.0462     32.49     31.56    -26.08     24.00
   33.0563     33.20     31.59    -25.39     24.00
   33.0665     32.92     31.61    -25.69     24.00
   33.0766     32.80     31.63    -25.83     24.00
   33.0868     33.35     31.65    -25.31     24.00
   33.0970     32.15     31.67    -26.53     24.00
   33.1071     32.77     31.69    -25.93     24.00
   33.1173     33.29     31.71    -25.43     24.00
   33.1275     32.53     31.73    -26.21     24.00
   33.1376     31.93     31.75    -26.83     24.00
   33.1478     32.45     31.77    -26.32     24.00
   33.1580     32.21     31.79    -26.58     24.00
   33.1681     32.64     31.81    -26.17     24.00
   33.1783     32.79     31.82    -26.04     24.00
   33.1885     32.81     31.84    -26.03     24.00
   33.1986     32.70     31.85    -26.16     24.00
   33.2088     32.62     31.87    -26.25     24.00
   33.2189     32.22     31.88    -26.66     24.00
   33.2291     32.28     31.89    -26.62     24.00
   33.2393     33.45     31.90    -25.46     24.00
   33.2494     32.71     31.92    -26.21     24.00
   33.2596     33.21     31.93    -25.72     24.00
   33.2698     33.01     31.94    -25.93     24.00
   33.2799     32.71     31.94    -26.24     24.00
   33.2901     33.15     31.95    -25.81     24.00
   33.3003     33.52     31.96    -25.44     24.00
   33.3104     32.24     31.97    -26.73     24.00
   33.3206     32.67     31.97    -26.31     24.00
   33.3308     33.07     31.98    -25.91     24.00
   33.3409     32.88     31.98    -26.11     24.00
   33.3511     32.61     31.98    -26.38     24.00
   33.3613     32.23     31.99    -26.76     24.00
   33.3714     32.68     31.99    -26.31     24.00
   33.3816     33.11     31.99    -25.88     24.00
   33.3917     33.10     31.99    -25.89     24.00
   33.4019     32.41     31.99    -26.58     24.00
   33.4121     33.09     31.99    -25.90     24.00
   33.4222     32.93     31.98    -26.06     24.00
   33.4324     32.66     31.98    -26.33     24.00
   33.4426     33.32     31.98    -25.66     24.00
   33.4527     32.79     31.97    -26.19     24.00
   33.4629     32.41     31.97    -26.56     24.00
   33.4731     32.51     31.96    -26.45     24.00
   33.4832     32.33     31.95    -26.62     24.00
   33.4934     32.02     31.94    -26.93     24.00
   33.5036     33.04     31.93    -25.90     24.00
   33.5137     32.14     31.92    -26.79     24.00
   33.5239     32.09     31.91    -26.83     24.00
   33.5340     32.58     31.90    -26.32     24.00
   33.5442     31.55     31.89    -27.34     24.00
   33.5544     31.52     31.87    -27.36     24.00
   33.5645     31.63     31.86    -27.23     24.00
   33.5747     32.42     31.84    -26.43     24.00
   33.5849     31.64     31.83    -27.19     24.00
   33.5950     31.99     31.81    -26.82     24.00
   33.6052     32.48     31.79    -26.31     24.00
   33.6154     31.65     31.77    -27.13     24.00
   33.6255     31.64     31.75    -27.12     24.00
   33.6357     31.61     31.73    -27.13     24.00
   33.6459     30.88     31.71    -27.83     24.00
   33.6560     31.40     31.69    -27.29     24.00
   33.6662     30.83     31.67    -27.84     24.00
   33.6764     31.27     31.64    -27.38     24.00
   33.6865     31.08     31.62    -27.54     24.00
   33.6967     31.42     31.59    -27.18     24.00
   33.7068     30.98     31.57    -27.59     24.00
   33.7170     30.93     31.54    -27.61     24.00
   33.7272     30.59     31.51    -27.93     24.00
   33.7373     30.51     31.49    -27.98     24.00
   33.7475     30.32     31.46    -28.14     24.00
   33.7577     30.86     31.43    -27.57     24.00
   33.7678     30.63     31.40    -27.77     24.00
   33.7780     30.88     31.37    -27.49     24.00
   33.7882     30.30     31.34    -28.04     24.00
   33.7983     29.98     31.30    -28.33     24.00
   33.8085     29.72     31.27    -28.55     24.00
   33.8187     29.71     31.24    -28.53     24.00
   33.8288     29.85     31.20    -28.36     24.00
   33.8390     29.66     31.17    -28.51     24.00
   33.8491     29.38     31.13    -28.76     24.00
   33.8593     29.34     31.10    -28.76     24.00
   33.8695     29.36     31.06    -28.71     24.00
   33.8796     29.72     31.03    -28.31     24.00
   33.8898     29.48     30.99    -28.51     24.00
   33.9000     29.93     30.95    -28.02     24.00
   33.9101     29.20     30.91    -28.72     24.00
   33.9203     28.17     30.87    -29.71     24.00
   33.9305     29.26     30.83    -28.58     24.00
   33.9406     28.80     30.79    -29.00     24.00
   33.9508     29.14     30.75    -28.62     24.00
   33.9610     28.36     30.71    -29.36     24.00
   33.9711     27.41     30.67    -30.27     24.00
   33.9813     28.44     30.63    -29.20     24.00
   33.9915     28.60     30.59    -28.99     24.00
   34.0016     27.87     30.55    -29.68     24.00
   34.0118     27.40     30.50    -30.11     24.00
   34.0219     27.57     30.46    -29.90     24.00
   34.0321     28.32     30.42    -29.10     24.00
   34.0423     28.19     30.38    -29.19     24.00
   34.0524     27.91     30.33    -29.43     24.00
   34.0626     28.48     30.29    -28.81     24.00
   34.0728     27.49     30.24    -29.76     24.00
   34.0829     27.29     30.20    -29.91     24.00
   34.0931     26.45     30.15    -30.71     24.00
   34.1033     27.90     30.11    -29.21     24.00
   34.1134     27.01     30.06    -30.06     24.00
   34.1236     27.61     30.02    -29.41     24.00
   34.1338     27.68     29.97    -29.30     24.00
   34.1439     27.67     29.93    -29.26     24.00
   34.1541     26.41     29.88    -30.47     24.00
   34.1642     27.37     29.83    -29.47     24.00
   34.1744     27.11     29.79    -29.68     24.00
   34.1846     27.05     29.74    -29.70     24.00
   34.1947     27.12     29.69    -29.58     24.00
   34.2049     27.48     29.65    -29.17     24.00
   34.2151     26.83     29.60    -29.78     24.00
   34.2252     26.96     29.55    -29.60     24.00
   34.2354     27.04     29.51    -29.47     24.00
   34.2456     26.78     29.46    -29.68     24.00
   34.2557     27.10     29.41    -29.32     24.00
   34.2659     26.36     29.37    -30.01     24.00
   34.2761     27.29     29.32    -29.03     24.00
   34.2862     27.44     29.27    -28.84     24.00
   34.2964     26.32     29.23    -29.91     24.00
   34.3066     26.62     29.18    -29.56     24.00
   34.3167     26.30     29.13    -29.84     24.00
   34.3269     26.37     29.09    -29.72     24.00
   34.3370     26.36     29.04    -29.68     24.00
   34.3472     27.24     28.99    -28.76     24.00
   34.3574     26.77     28.95    -29.18     24.00
   34.3675     26.63     28.90    -29.27     24.00
   34.3777     26.49     28.85    -29.37     24.00
   34.3879     26.80     28.81    -29.01     24.00
   34.3980     26.34     28.76    -29.42     24.00
   34.4082     26.74     28.71    -28.98     24.00
   34.4184     26.41     28.67    -29.26     24.00
   34.4285     26.60     28.62    -29.03     24.00
   34.4387     26.51     28.58    -29.07     24.00
   34.4489     25.62     28.53    -29.92     24.00
   34.4590     26.48     28.49    -29.01     24.00
   34.4692     26.30     28.44    -29.15     24.00
   34.4793     26.51     28.40    -28.89     24.00
   34.4895     26.24     28.35    -29.12     24.00
   34.4997     26.27     28.31    -29.04     24.00
   34.5098     26.46     28.26    -28.81     24.00
   34.5200     26.71     28.22    -28.51     24.00
   34.5302     26.04     28.18    -29.14     24.00
   34.5403     26.12     28.13    -29.02     24.00
   34.5505     25.54     28.09    -29.55     24.00
   34.5607     26.27     28.05    -28.78     24.00
   34.5708     25.88     28.00    -29.13     24.00
   34.5810     25.32     27.96    -29.64     24.00
   34.5912     26.33     27.92    -28.59     24.00
   34.6013     25.80     27.88    -29.08     24.00
   34.6115     25.32     27.83    -29.52     24.00
   34.6217     25.07     27.79    -29.73     24.00
   34.6318     25.69     27.75    -29.07     24.00
   34.6420     25.30     27.71    -29.42     24.00
   34.6521     25.77     27.67    -28.91     24.00
   34.6623     26.22     27.63    -28.42     24.00
   34.6725     25.46     27.59    -29.14     24.00
   34.6826     26.45     27.55    -28.11     24.00
   34.6928     25.52     27.51    -29.00     24.00
   34.7030     25.84     27.47    -28.64     24.00
   34.7131     25.77     27.44    -28.67     24.00
   34.7233     25.87     27.40    -28.53     24.00
   34.7335     25.04     27.36    -29.32     24.00
   34.7436     25.68     27.32    -28.65     24.00
   34.7538     25.55     27.29    -28.74     24.00
   34.7640     25.74     27.25    -28.51     24.00
   34.7741     25.20     27.21    -29.02     24.00
   34.7843     25.65     27.18    -28.53     24.00
   34.7944     25.85     27.14    -28.30     24.00
   34.8046     25.68     27.11    -28.43     24.00
   34.8148     25.29     27.07    -28.78     24.00
   34.8249     25.16     27.04    -28.88     24.00
   34.8351     26.26     27.00    -27.75     24.00
   34.8453     24.79     26.97    -29.18     24.00
   34.8554     25.12     26.94    -28.82     24.00
   34.8656     25.32     26.90    -28.59     24.00
   34.8758     25.70     26.87    -28.17     24.00
   34.8859     25.59     26.84    -28.25     24.00
   34.8961     26.07     26.81    -27.74     24.00
   34.9063     25.53     26.77    -28.25     24.00
   34.9164     25.88     26.74    -27.87     24.00
   34.9266     25.38     26.71    -28.34     24.00
   34.9367     25.16     26.68    -28.53     24.00
   34.9469     24.74     26.65    -28.92     24.00
   34.9571     24.95     26.62    -28.68     24.00
   34.9672     24.99     26.59    -28.61     24.00
   34.9774     25.88     26.56    -27.69     24.00
   34.9876     24.85     26.53    -28.69     24.00
   34.9977     25.26     26.51    -28.25     24.00
   35.0079     25.16     26.48    -28.32     24.00
   35.0181     25.56     26.45    -27.90     24.00
   35.0282     25.41     26.42    -28.02     24.00
   35.0384     25.05     26.40    -28.35     24.00
   35.0486     25.20     26.37    -28.18     24.00
   35.0587     24.47     26.35    -28.88     24.00
   35.0689     24.82     26.32    -28.50     24.00
   35.0791     25.04     26.29    -28.26     24.00
   35.0892     24.85     26.27    -28.42     24.00
   35.0994     25.37     26.25    -27.88     24.00
   35.1095     25.75     26.22    -27.48     24.00
   35.1197     25.71     26.20    -27.49     24.00
   35.1299     24.87     26.17    -28.31     24.00
   35.1400     25.14     26.15    -28.02     24.00
   35.1502     24.34     26.13    -28.79     24.00
   35.1604     25.11     26.11    -28.00     24.00
   35.1705     24.63     26.08    -28.46     24.00
   35.1807     24.46     26.06    -28.61     24.00
   35.1909     25.28     26.04    -27.76     24.00
   35.2010     25.32     26.02    -27.70     24.00
   35.2112     24.94     26.00    -28.06     24.00
   35.2214     24.95     25.98    -28.03     24.00
   35.2315     24.16     25.96    -28.80     24.00
   35.2417     24.92     25.94    -28.02     24.00
   35.2518     24.87     25.92    -28.05     24.00
   35.2620     24.54     25.90    -28.36     24.00
   35.2722     24.13     25.88    -28.76     24.00
   35.2823     25.52     25.86    -27.35     24.00
   35.2925     24.52     25.84    -28.33     24.00
   35.3027     25.08     25.83    -27.75     24.00
   35.3128     24.61     25.81    -28.20     24.00
   35.3230     25.23     25.79    -27.57     24.00
   35.3332     24.15     25.78    -28.63     24.00
   35.3433     24.90     25.76    -27.86     24.00
   35.3535     24.69     25.74    -28.06     24.00
   35.3637     23.87     25.73    -28.86     24.00
   35.3738     24.26     25.71    -28.45     24.00
   35.3840     24.82     25.69    -27.88     24.00
   35.3942     24.56     25.68    -28.12     24.00
   35.4043     23.66     25.66    -29.01     24.00
   35.4145     25.07     25.65    -27.58     24.00
   35.4246     24.71     25.64    -27.93     24.00
   35.4348     23.96     25.62    -28.67     24.00
   35.4450     24.32     25.61    -28.29     24.00
   35.4551     24.74     25.59    -27.86     24.00
   35.4653     24.84     25.58    -27.74     24.00
   35.4755     24.95     25.57    -27.62     24.00
   35.4856     24.95     25.55    -27.61     24.00
   35.4958     23.95     25.54    -28.59     24.00
   35.5060     24.20     25.53    -28.33     24.00
   35.5161     25.04     25.52    -27.48     24.00
   35.5263     24.70     25.50    -27.81     24.00
   35.5365     24.91     25.49    -27.59     24.00
   35.5466     23.89     25.48    -28.59     24.00
   35.5568     24.21     25.47    -28.26     24.00
   35.5669     24.68     25.46    -27.78     24.00
   35.5771     24.66     25.45    -27.79     24.00
   35.5873     23.53     25.44    -28.91     24.00
   35.5974     24.77     25.43    -27.66     24.00
   35.6076     24.44     25.42    -27.98     24.00
   35.6178     24.11     25.41    -28.30     24.00
   35.6279     24.13     25.40    -28.27     24.00
   35.6381     24.19     25.39    -28.20     24.00
   35.6483     24.49     25.38    -27.89     24.00
   35.6584     24.66     25.37    -27.71     24.00
   35.6686     24.06     25.36    -28.30     24.00
   35.6788     24.24     25.35    -28.11     24.00
   35.6889     24.14     25.34    -28.20     24.00
   35.6991     23.72     25.33    -28.61     24.00
   35.7093     24.32     25.32    -28.01     24.00
   35.7194     24.07     25.31    -28.25     24.00
   35.7296     23.32     25.31    -28.99     24.00
   35.7397     23.87     25.30    -28.43     24.00
   35.7499     24.13     25.29    -28.16     24.00
   35.7601     24.09     25.28    -28.20     24.00
   35.7702     24.17     25.27    -28.11     24.00
   35.7804     24.43     25.27    -27.84     24.00
   35.7906     24.99     25.26    -27.27     24.00
   35.8007     24.57     25.25    -27.69     24.00
   35.8109     23.62     25.25    -28.63     24.00
   35.8211     24.17     25.24    -28.07     24.00
   35.8312     25.01     25.23    -27.23     24.00
   35.8414     23.82     25.22    -28.41     24.00
   35.8516     24.77     25.22    -27.45     24.00
   35.8617     24.30     25.21    -27.92     24.00
   35.8719     24.29     25.21    -27.92     24.00
   35.8820     24.45     25.20    -27.75     24.00
   35.8922     23.76     25.19    -28.44     24.00
   35.9024     24.30     25.19    -27.89     24.00
   35.9125     23.82     25.18    -28.37     24.00
   35.9227     24.01     25.18    -28.17     24.00
   35.9329     23.79     25.17    -28.38     24.00
   35.9430     23.75     25.16    -28.42     24.00
   35.9532     23.68     25.16    -28.48     24.00
   35.9634     24.76     25.15    -27.40     24.00
   35.9735     24.23     25.15    -27.92     24.00
   35.9837     24.76     25.14    -27.39     24.00
   35.9939     23.55     25.14    -28.59     24.00
