 => TITLE: 
 => Data file name: C:\Users\stefano\Nextcloud2\uni\master-thesis\XRD\data\G111\G111--5-40-0.01-1000ms.xy
 => Instrm        :    1
 => Lambda(1&2)   :   1.54060  1.54060
 => Numb.of.points:      2951
 => Numb.of.peaks :         8
    2Theta     Yobs     Ycalc  Yobs-Ycal    Backg    Bragg     Posr  Intensity   FWHM    Eta
    6.0086     23.72     24.60    -27.43     24.00   18.7054     -2.22     134.52  0.8307  0.0027
    6.0187     23.63     24.61    -27.52     24.00   20.4994     -2.22      91.57  1.6223  0.0027
    6.0289     23.77     24.61    -27.39     24.00   22.5531     -2.22     107.83  1.1826  0.0027
    6.0391     23.38     24.62    -27.78     24.00   28.5680     -2.22      39.46  1.2110  0.0027
    6.0492     23.66     24.62    -27.51     24.00   30.0042     -2.22      27.64  2.6055  0.0027
    6.0594     22.86     24.62    -28.31     24.00   33.3876     -2.22      16.07  2.6055  0.0027
    6.0696     22.91     24.63    -28.26     24.00   17.5000     -2.22      78.20  2.6055  0.0027
    6.0797     22.79     24.63    -28.39     24.00   20.1044     -2.22     705.02 10.9002  0.0027
    6.0899     23.34     24.64    -27.84     24.00
    6.1001     22.82     24.64    -28.37     24.00
    6.1102     23.01     24.64    -28.18     24.00
    6.1204     22.55     24.65    -28.64     24.00
    6.1306     23.70     24.65    -27.50     24.00
    6.1407     23.16     24.66    -28.04     24.00
    6.1509     23.45     24.66    -27.76     24.00
    6.1611     22.96     24.67    -28.25     24.00
    6.1712     22.88     24.67    -28.34     24.00
    6.1814     22.88     24.67    -28.34     24.00
    6.1915     23.66     24.68    -27.56     24.00
    6.2017     22.99     24.68    -28.24     24.00
    6.2119     22.48     24.69    -28.75     24.00
    6.2220     23.40     24.69    -27.84     24.00
    6.2322     22.10     24.70    -29.14     24.00
    6.2424     22.76     24.70    -28.49     24.00
    6.2525     23.07     24.70    -28.18     24.00
    6.2627     23.42     24.71    -27.84     24.00
    6.2729     23.15     24.71    -28.11     24.00
    6.2830     22.78     24.72    -28.48     24.00
    6.2932     22.54     24.72    -28.73     24.00
    6.3034     22.50     24.73    -28.77     24.00
    6.3135     22.88     24.73    -28.40     24.00
    6.3237     22.83     24.74    -28.45     24.00
    6.3338     22.73     24.74    -28.56     24.00
    6.3440     22.71     24.75    -28.58     24.00
    6.3542     22.91     24.75    -28.39     24.00
    6.3643     22.62     24.76    -28.68     24.00
    6.3745     23.80     24.76    -27.51     24.00
    6.3847     23.15     24.77    -28.16     24.00
    6.3948     22.85     24.77    -28.47     24.00
    6.4050     22.48     24.78    -28.84     24.00
    6.4152     22.65     24.78    -28.68     24.00
    6.4253     23.30     24.79    -28.03     24.00
    6.4355     22.71     24.79    -28.63     24.00
    6.4457     22.24     24.80    -29.10     24.00
    6.4558     23.34     24.80    -28.01     24.00
    6.4660     22.85     24.81    -28.50     24.00
    6.4762     23.23     24.81    -28.13     24.00
    6.4863     23.12     24.82    -28.24     24.00
    6.4965     22.99     24.82    -28.38     24.00
    6.5066     23.03     24.83    -28.34     24.00
    6.5168     22.65     24.83    -28.73     24.00
    6.5270     23.79     24.84    -27.59     24.00
    6.5371     22.68     24.84    -28.71     24.00
    6.5473     22.58     24.85    -28.81     24.00
    6.5575     23.29     24.85    -28.11     24.00
    6.5676     22.98     24.86    -28.43     24.00
    6.5778     22.26     24.86    -29.15     24.00
    6.5880     22.90     24.87    -28.52     24.00
    6.5981     22.76     24.88    -28.66     24.00
    6.6083     22.85     24.88    -28.58     24.00
    6.6185     23.01     24.89    -28.42     24.00
    6.6286     22.78     24.89    -28.66     24.00
    6.6388     23.41     24.90    -28.03     24.00
    6.6489     22.42     24.90    -29.03     24.00
    6.6591     23.17     24.91    -28.29     24.00
    6.6693     23.07     24.92    -28.39     24.00
    6.6794     23.21     24.92    -28.26     24.00
    6.6896     22.98     24.93    -28.49     24.00
    6.6998     23.32     24.93    -28.16     24.00
    6.7099     22.78     24.94    -28.70     24.00
    6.7201     22.96     24.94    -28.53     24.00
    6.7303     22.95     24.95    -28.55     24.00
    6.7404     23.15     24.96    -28.35     24.00
    6.7506     23.68     24.96    -27.83     24.00
    6.7608     22.80     24.97    -28.71     24.00
    6.7709     23.45     24.97    -28.07     24.00
    6.7811     23.60     24.98    -27.93     24.00
    6.7913     23.41     24.99    -28.12     24.00
    6.8014     23.23     24.99    -28.31     24.00
    6.8116     23.96     25.00    -27.58     24.00
    6.8217     23.51     25.00    -28.04     24.00
    6.8319     22.93     25.01    -28.63     24.00
    6.8421     23.37     25.02    -28.19     24.00
    6.8522     23.13     25.02    -28.44     24.00
    6.8624     23.61     25.03    -27.97     24.00
    6.8726     23.27     25.04    -28.31     24.00
    6.8827     23.40     25.04    -28.19     24.00
    6.8929     24.46     25.05    -27.14     24.00
    6.9031     22.36     25.06    -29.24     24.00
    6.9132     23.68     25.06    -27.93     24.00
    6.9234     23.94     25.07    -27.68     24.00
    6.9336     23.88     25.08    -27.74     24.00
    6.9437     23.39     25.08    -28.24     24.00
    6.9539     22.98     25.09    -28.66     24.00
    6.9640     23.70     25.10    -27.94     24.00
    6.9742     24.20     25.10    -27.45     24.00
    6.9844     23.47     25.11    -28.19     24.00
    6.9945     23.41     25.12    -28.25     24.00
    7.0047     23.71     25.12    -27.96     24.00
    7.0149     23.32     25.13    -28.36     24.00
    7.0250     23.66     25.14    -28.02     24.00
    7.0352     23.93     25.14    -27.76     24.00
    7.0454     23.36     25.15    -28.34     24.00
    7.0555     23.68     25.16    -28.02     24.00
    7.0657     24.55     25.17    -27.16     24.00
    7.0759     24.18     25.17    -27.54     24.00
    7.0860     23.84     25.18    -27.89     24.00
    7.0962     24.54     25.19    -27.19     24.00
    7.1064     24.16     25.19    -27.58     24.00
    7.1165     23.21     25.20    -28.54     24.00
    7.1267     23.98     25.21    -27.77     24.00
    7.1368     23.80     25.22    -27.96     24.00
    7.1470     24.41     25.22    -27.36     24.00
    7.1572     23.42     25.23    -28.36     24.00
    7.1673     24.05     25.24    -27.73     24.00
    7.1775     24.22     25.25    -27.57     24.00
    7.1877     24.17     25.25    -27.63     24.00
    7.1978     23.70     25.26    -28.11     24.00
    7.2080     24.35     25.27    -27.46     24.00
    7.2182     23.33     25.28    -28.49     24.00
    7.2283     23.60     25.28    -28.23     24.00
    7.2385     23.79     25.29    -28.05     24.00
    7.2487     23.68     25.30    -28.17     24.00
    7.2588     24.35     25.31    -27.50     24.00
    7.2690     24.20     25.32    -27.66     24.00
    7.2791     23.66     25.32    -28.21     24.00
    7.2893     24.48     25.33    -27.40     24.00
    7.2995     24.34     25.34    -27.55     24.00
    7.3096     23.63     25.35    -28.26     24.00
    7.3198     23.79     25.36    -28.11     24.00
    7.3300     23.87     25.36    -28.04     24.00
    7.3401     24.23     25.37    -27.69     24.00
    7.3503     24.01     25.38    -27.92     24.00
    7.3605     23.79     25.39    -28.14     24.00
    7.3706     24.51     25.40    -27.43     24.00
    7.3808     24.60     25.41    -27.35     24.00
    7.3910     24.03     25.41    -27.93     24.00
    7.4011     24.86     25.42    -27.11     24.00
    7.4113     24.27     25.43    -27.71     24.00
    7.4215     23.98     25.44    -28.01     24.00
    7.4316     24.49     25.45    -27.50     24.00
    7.4418     24.52     25.46    -27.48     24.00
    7.4519     24.76     25.46    -27.25     24.00
    7.4621     25.38     25.47    -26.64     24.00
    7.4723     24.31     25.48    -27.72     24.00
    7.4824     24.74     25.49    -27.30     24.00
    7.4926     25.55     25.50    -26.50     24.00
    7.5028     24.55     25.51    -27.51     24.00
    7.5129     24.70     25.52    -27.36     24.00
    7.5231     25.16     25.53    -26.91     24.00
    7.5333     24.88     25.54    -27.20     24.00
    7.5434     24.70     25.55    -27.39     24.00
    7.5536     24.17     25.55    -27.93     24.00
    7.5638     24.45     25.56    -27.66     24.00
    7.5739     24.74     25.57    -27.38     24.00
    7.5841     24.51     25.58    -27.62     24.00
    7.5942     25.63     25.59    -26.51     24.00
    7.6044     24.01     25.60    -28.14     24.00
    7.6146     24.73     25.61    -27.43     24.00
    7.6247     24.79     25.62    -27.38     24.00
    7.6349     24.69     25.63    -27.49     24.00
    7.6451     24.80     25.64    -27.38     24.00
    7.6552     24.98     25.65    -27.21     24.00
    7.6654     24.40     25.66    -27.80     24.00
    7.6756     24.89     25.67    -27.32     24.00
    7.6857     24.48     25.68    -27.74     24.00
    7.6959     24.79     25.69    -27.44     24.00
    7.7061     24.69     25.70    -27.55     24.00
    7.7162     25.93     25.71    -26.32     24.00
    7.7264     25.12     25.72    -27.14     24.00
    7.7365     25.07     25.73    -27.20     24.00
    7.7467     25.49     25.74    -26.79     24.00
    7.7569     24.51     25.75    -27.78     24.00
    7.7670     25.50     25.76    -26.80     24.00
    7.7772     24.74     25.77    -27.57     24.00
    7.7874     24.54     25.78    -27.78     24.00
    7.7975     25.74     25.79    -26.59     24.00
    7.8077     24.80     25.80    -27.54     24.00
    7.8179     25.20     25.81    -27.16     24.00
    7.8280     26.05     25.82    -26.32     24.00
    7.8382     25.49     25.83    -26.89     24.00
    7.8484     25.74     25.84    -26.65     24.00
    7.8585     25.30     25.85    -27.10     24.00
    7.8687     25.57     25.86    -26.84     24.00
    7.8789     25.10     25.87    -27.32     24.00
    7.8890     25.61     25.88    -26.82     24.00
    7.8992     25.88     25.89    -26.56     24.00
    7.9093     25.70     25.91    -26.75     24.00
    7.9195     25.80     25.92    -26.66     24.00
    7.9297     25.79     25.93    -26.68     24.00
    7.9398     25.63     25.94    -26.85     24.00
    7.9500     25.34     25.95    -27.16     24.00
    7.9602     25.27     25.96    -27.24     24.00
    7.9703     25.48     25.97    -27.04     24.00
    7.9805     24.87     25.98    -27.66     24.00
    7.9907     25.13     25.99    -27.41     24.00
    8.0008     25.36     26.01    -27.19     24.00
    8.0110     25.20     26.02    -27.36     24.00
    8.0212     24.93     26.03    -27.64     24.00
    8.0313     25.07     26.04    -27.52     24.00
    8.0415     25.48     26.05    -27.12     24.00
    8.0516     25.84     26.06    -26.77     24.00
    8.0618     25.62     26.08    -27.00     24.00
    8.0720     25.68     26.09    -26.95     24.00
    8.0821     26.62     26.10    -26.03     24.00
    8.0923     25.70     26.11    -26.96     24.00
    8.1025     26.90     26.12    -25.77     24.00
    8.1126     25.74     26.14    -26.94     24.00
    8.1228     25.31     26.15    -27.38     24.00
    8.1330     26.76     26.16    -25.95     24.00
    8.1431     25.95     26.17    -26.77     24.00
    8.1533     25.60     26.18    -27.13     24.00
    8.1635     25.95     26.20    -26.79     24.00
    8.1736     27.24     26.21    -25.51     24.00
    8.1838     26.09     26.22    -26.68     24.00
    8.1940     26.18     26.23    -26.60     24.00
    8.2041     26.71     26.25    -26.08     24.00
    8.2143     26.65     26.26    -26.15     24.00
    8.2244     26.46     26.27    -26.36     24.00
    8.2346     26.53     26.28    -26.30     24.00
    8.2448     26.23     26.30    -26.61     24.00
    8.2549     26.40     26.31    -26.46     24.00
    8.2651     26.19     26.32    -26.68     24.00
    8.2753     26.35     26.34    -26.53     24.00
    8.2854     26.85     26.35    -26.04     24.00
    8.2956     26.45     26.36    -26.46     24.00
    8.3058     25.99     26.37    -26.93     24.00
    8.3159     26.09     26.39    -26.84     24.00
    8.3261     26.84     26.40    -26.11     24.00
    8.3363     26.66     26.41    -26.30     24.00
    8.3464     25.62     26.43    -27.35     24.00
    8.3566     26.43     26.44    -26.56     24.00
    8.3667     26.59     26.46    -26.41     24.00
    8.3769     25.99     26.47    -27.02     24.00
    8.3871     26.36     26.48    -26.67     24.00
    8.3972     26.69     26.50    -26.35     24.00
    8.4074     26.45     26.51    -26.61     24.00
    8.4176     26.60     26.52    -26.47     24.00
    8.4277     26.99     26.54    -26.09     24.00
    8.4379     27.11     26.55    -25.99     24.00
    8.4481     27.23     26.57    -25.88     24.00
    8.4582     26.49     26.58    -26.64     24.00
    8.4684     26.92     26.59    -26.22     24.00
    8.4786     26.98     26.61    -26.17     24.00
    8.4887     26.90     26.62    -26.27     24.00
    8.4989     26.15     26.64    -27.03     24.00
    8.5091     26.91     26.65    -26.29     24.00
    8.5192     26.72     26.67    -26.49     24.00
    8.5294     27.76     26.68    -25.47     24.00
    8.5395     27.62     26.70    -25.62     24.00
    8.5497     26.62     26.71    -26.64     24.00
    8.5599     27.15     26.73    -26.12     24.00
    8.5700     26.99     26.74    -26.30     24.00
    8.5802     26.57     26.75    -26.73     24.00
    8.5904     27.26     26.77    -26.06     24.00
    8.6005     26.55     26.78    -26.78     24.00
    8.6107     27.02     26.80    -26.33     24.00
    8.6209     26.84     26.82    -26.52     24.00
    8.6310     27.45     26.83    -25.93     24.00
    8.6412     26.62     26.85    -26.77     24.00
    8.6514     27.38     26.86    -26.03     24.00
    8.6615     28.18     26.88    -25.24     24.00
    8.6717     26.97     26.89    -26.47     24.00
    8.6818     26.70     26.91    -26.75     24.00
    8.6920     27.98     26.92    -25.49     24.00
    8.7022     27.18     26.94    -26.31     24.00
    8.7123     28.26     26.96    -25.24     24.00
    8.7225     28.00     26.97    -25.52     24.00
    8.7327     26.96     26.99    -26.57     24.00
    8.7428     27.15     27.00    -26.40     24.00
    8.7530     27.78     27.02    -25.79     24.00
    8.7632     26.84     27.04    -26.74     24.00
    8.7733     26.96     27.05    -26.64     24.00
    8.7835     27.49     27.07    -26.12     24.00
    8.7937     27.04     27.08    -26.59     24.00
    8.8038     28.16     27.10    -25.49     24.00
    8.8140     27.88     27.12    -25.78     24.00
    8.8242     26.79     27.13    -26.89     24.00
    8.8343     27.31     27.15    -26.39     24.00
    8.8445     27.77     27.17    -25.94     24.00
    8.8546     27.95     27.18    -25.78     24.00
    8.8648     27.84     27.20    -25.91     24.00
    8.8750     27.27     27.22    -26.49     24.00
    8.8851     27.45     27.24    -26.33     24.00
    8.8953     27.99     27.25    -25.81     24.00
    8.9055     27.82     27.27    -26.00     24.00
    8.9156     27.30     27.29    -26.53     24.00
    8.9258     29.51     27.31    -24.34     24.00
    8.9360     28.36     27.32    -25.51     24.00
    8.9461     27.21     27.34    -26.68     24.00
    8.9563     28.80     27.36    -25.10     24.00
    8.9665     28.36     27.38    -25.56     24.00
    8.9766     27.84     27.39    -26.10     24.00
    8.9868     28.30     27.41    -25.66     24.00
    8.9969     27.19     27.43    -26.78     24.00
    9.0071     27.82     27.45    -26.17     24.00
    9.0173     29.09     27.47    -24.92     24.00
    9.0274     28.71     27.48    -25.32     24.00
    9.0376     28.57     27.50    -25.48     24.00
    9.0478     27.67     27.52    -26.40     24.00
    9.0579     27.98     27.54    -26.10     24.00
    9.0681     27.43     27.56    -26.67     24.00
    9.0783     28.24     27.58    -25.88     24.00
    9.0884     28.11     27.59    -26.03     24.00
    9.0986     28.36     27.61    -25.80     24.00
    9.1088     29.17     27.63    -25.01     24.00
    9.1189     28.48     27.65    -25.72     24.00
    9.1291     28.93     27.67    -25.29     24.00
    9.1393     28.83     27.69    -25.40     24.00
    9.1494     27.74     27.71    -26.51     24.00
    9.1596     29.42     27.73    -24.85     24.00
    9.1697     28.40     27.75    -25.89     24.00
    9.1799     28.90     27.77    -25.41     24.00
    9.1901     27.67     27.79    -26.66     24.00
    9.2002     28.85     27.80    -25.50     24.00
    9.2104     28.95     27.82    -25.42     24.00
    9.2206     28.74     27.84    -25.65     24.00
    9.2307     29.14     27.86    -25.27     24.00
    9.2409     29.36     27.88    -25.07     24.00
    9.2511     28.26     27.90    -26.19     24.00
    9.2612     28.32     27.92    -26.15     24.00
    9.2714     29.45     27.94    -25.04     24.00
    9.2816     28.31     27.96    -26.20     24.00
    9.2917     28.74     27.98    -25.79     24.00
    9.3019     28.49     28.00    -26.06     24.00
    9.3120     28.91     28.03    -25.66     24.00
    9.3222     28.85     28.05    -25.74     24.00
    9.3324     28.99     28.07    -25.62     24.00
    9.3425     28.52     28.09    -26.11     24.00
    9.3527     29.96     28.11    -24.69     24.00
    9.3629     27.99     28.13    -26.68     24.00
    9.3730     29.09     28.15    -25.61     24.00
    9.3832     28.63     28.17    -26.09     24.00
    9.3934     29.54     28.19    -25.20     24.00
    9.4035     28.71     28.21    -26.05     24.00
    9.4137     29.48     28.23    -25.30     24.00
    9.4239     29.41     28.26    -25.39     24.00
    9.4340     29.45     28.28    -25.37     24.00
    9.4442     29.57     28.30    -25.28     24.00
    9.4544     29.02     28.32    -25.85     24.00
    9.4645     29.59     28.34    -25.30     24.00
    9.4747     29.59     28.36    -25.32     24.00
    9.4848     29.46     28.39    -25.47     24.00
    9.4950     29.51     28.41    -25.44     24.00
    9.5052     29.85     28.43    -25.13     24.00
    9.5153     29.54     28.45    -25.46     24.00
    9.5255     29.39     28.48    -25.63     24.00
    9.5357     30.60     28.50    -24.44     24.00
    9.5458     30.16     28.52    -24.91     24.00
    9.5560     28.48     28.54    -26.61     24.00
    9.5662     29.27     28.57    -25.84     24.00
    9.5763     29.75     28.59    -25.38     24.00
    9.5865     29.09     28.61    -26.07     24.00
    9.5967     29.95     28.63    -25.23     24.00
    9.6068     29.51     28.66    -25.69     24.00
    9.6170     29.60     28.68    -25.63     24.00
    9.6271     30.63     28.70    -24.62     24.00
    9.6373     29.58     28.73    -25.69     24.00
    9.6475     29.16     28.75    -26.14     24.00
    9.6576     30.15     28.77    -25.17     24.00
    9.6678     30.15     28.80    -25.19     24.00
    9.6780     29.24     28.82    -26.13     24.00
    9.6881     30.02     28.84    -25.37     24.00
    9.6983     29.80     28.87    -25.61     24.00
    9.7085     30.37     28.89    -25.07     24.00
    9.7186     30.50     28.92    -24.96     24.00
    9.7288     30.07     28.94    -25.42     24.00
    9.7390     29.40     28.97    -26.11     24.00
    9.7491     29.79     28.99    -25.75     24.00
    9.7593     29.30     29.01    -26.26     24.00
    9.7694     29.30     29.04    -26.28     24.00
    9.7796     30.12     29.06    -25.49     24.00
    9.7898     30.66     29.09    -24.97     24.00
    9.7999     29.83     29.11    -25.83     24.00
    9.8101     29.98     29.14    -25.70     24.00
    9.8203     30.60     29.16    -25.11     24.00
    9.8304     29.07     29.19    -26.66     24.00
    9.8406     30.62     29.21    -25.14     24.00
    9.8508     29.89     29.24    -25.89     24.00
    9.8609     29.05     29.26    -26.76     24.00
    9.8711     31.16     29.29    -24.68     24.00
    9.8813     29.76     29.32    -26.10     24.00
    9.8914     30.05     29.34    -25.84     24.00
    9.9016     30.13     29.37    -25.78     24.00
    9.9118     30.56     29.39    -25.38     24.00
    9.9219     29.55     29.42    -26.41     24.00
    9.9321     30.55     29.45    -25.44     24.00
    9.9422     29.75     29.47    -26.27     24.00
    9.9524     30.84     29.50    -25.20     24.00
    9.9626     29.82     29.52    -26.25     24.00
    9.9727     30.52     29.55    -25.58     24.00
    9.9829     30.44     29.58    -25.68     24.00
    9.9931     30.38     29.60    -25.77     24.00
   10.0032     30.38     29.63    -25.80     24.00
   10.0134     30.46     29.66    -25.74     24.00
   10.0236     30.73     29.69    -25.50     24.00
   10.0337     29.68     29.71    -26.58     24.00
   10.0439     30.16     29.74    -26.13     24.00
   10.0541     30.99     29.77    -25.32     24.00
   10.0642     30.31     29.79    -26.03     24.00
   10.0744     31.31     29.82    -25.06     24.00
   10.0845     31.16     29.85    -25.24     24.00
   10.0947     30.84     29.88    -25.58     24.00
   10.1049     30.92     29.91    -25.53     24.00
   10.1150     30.85     29.93    -25.63     24.00
   10.1252     31.17     29.96    -25.34     24.00
   10.1354     31.06     29.99    -25.48     24.00
   10.1455     31.55     30.02    -25.01     24.00
   10.1557     30.80     30.05    -25.79     24.00
   10.1659     30.49     30.07    -26.13     24.00
   10.1760     30.25     30.10    -26.40     24.00
   10.1862     30.60     30.13    -26.08     24.00
   10.1964     31.32     30.16    -25.39     24.00
   10.2065     30.34     30.19    -26.40     24.00
   10.2167     30.96     30.22    -25.80     24.00
   10.2269     29.46     30.25    -27.33     24.00
   10.2370     31.05     30.28    -25.77     24.00
   10.2472     31.63     30.31    -25.22     24.00
   10.2573     30.60     30.34    -26.28     24.00
   10.2675     31.01     30.37    -25.90     24.00
   10.2777     30.86     30.39    -26.08     24.00
   10.2878     30.65     30.42    -26.32     24.00
   10.2980     30.67     30.45    -26.33     24.00
   10.3082     31.15     30.48    -25.88     24.00
   10.3183     31.64     30.51    -25.42     24.00
   10.3285     31.84     30.54    -25.25     24.00
   10.3387     31.16     30.58    -25.96     24.00
   10.3488     30.54     30.61    -26.61     24.00
   10.3590     31.59     30.64    -25.59     24.00
   10.3692     31.15     30.67    -26.06     24.00
   10.3793     30.82     30.70    -26.42     24.00
   10.3895     31.49     30.73    -25.78     24.00
   10.3996     30.68     30.76    -26.63     24.00
   10.4098     31.33     30.79    -26.01     24.00
   10.4200     31.36     30.82    -26.01     24.00
   10.4301     32.18     30.85    -25.22     24.00
   10.4403     31.33     30.88    -26.10     24.00
   10.4505     30.74     30.92    -26.72     24.00
   10.4606     32.37     30.95    -25.12     24.00
   10.4708     31.71     30.98    -25.82     24.00
   10.4810     31.43     31.01    -26.13     24.00
   10.4911     30.93     31.04    -26.66     24.00
   10.5013     32.05     31.08    -25.57     24.00
   10.5115     31.69     31.11    -25.96     24.00
   10.5216     30.68     31.14    -27.01     24.00
   10.5318     31.88     31.17    -25.84     24.00
   10.5420     31.27     31.20    -26.48     24.00
   10.5521     31.42     31.24    -26.36     24.00
   10.5623     32.05     31.27    -25.77     24.00
   10.5724     31.14     31.30    -26.71     24.00
   10.5826     31.45     31.34    -26.43     24.00
   10.5928     32.15     31.37    -25.77     24.00
   10.6029     32.05     31.40    -25.90     24.00
   10.6131     31.88     31.44    -26.10     24.00
   10.6233     31.68     31.47    -26.34     24.00
   10.6334     32.82     31.50    -25.23     24.00
   10.6436     32.12     31.54    -25.96     24.00
   10.6538     33.46     31.57    -24.66     24.00
   10.6639     32.85     31.60    -25.30     24.00
   10.6741     31.92     31.64    -26.26     24.00
   10.6843     33.08     31.67    -25.14     24.00
   10.6944     32.54     31.71    -25.71     24.00
   10.7046     32.50     31.74    -25.79     24.00
   10.7147     32.83     31.78    -25.49     24.00
   10.7249     32.53     31.81    -25.83     24.00
   10.7351     32.37     31.84    -26.02     24.00
   10.7452     32.61     31.88    -25.82     24.00
   10.7554     32.54     31.91    -25.92     24.00
   10.7656     32.38     31.95    -26.12     24.00
   10.7757     32.29     31.98    -26.24     24.00
   10.7859     32.93     32.02    -25.64     24.00
   10.7961     32.37     32.06    -26.23     24.00
   10.8062     32.82     32.09    -25.82     24.00
   10.8164     33.00     32.13    -25.67     24.00
   10.8266     32.51     32.16    -26.20     24.00
   10.8367     32.68     32.20    -26.06     24.00
   10.8469     32.22     32.23    -26.56     24.00
   10.8571     32.27     32.27    -26.55     24.00
   10.8672     33.34     32.31    -25.51     24.00
   10.8774     32.21     32.34    -26.68     24.00
   10.8875     32.36     32.38    -26.57     24.00
   10.8977     32.38     32.42    -26.58     24.00
   10.9079     31.71     32.45    -27.29     24.00
   10.9180     32.52     32.49    -26.52     24.00
   10.9282     32.37     32.53    -26.70     24.00
   10.9384     33.12     32.56    -25.99     24.00
   10.9485     31.97     32.60    -27.18     24.00
   10.9587     33.07     32.64    -26.11     24.00
   10.9689     32.99     32.68    -26.23     24.00
   10.9790     32.51     32.71    -26.75     24.00
   10.9892     31.94     32.75    -27.36     24.00
   10.9994     33.13     32.79    -26.21     24.00
   11.0095     32.08     32.83    -27.29     24.00
   11.0197     33.55     32.87    -25.86     24.00
   11.0298     33.57     32.90    -25.88     24.00
   11.0400     32.19     32.94    -27.30     24.00
   11.0502     33.41     32.98    -26.12     24.00
   11.0603     33.45     33.02    -26.11     24.00
   11.0705     33.32     33.06    -26.28     24.00
   11.0807     33.71     33.10    -25.93     24.00
   11.0908     33.04     33.13    -26.64     24.00
   11.1010     33.04     33.17    -26.68     24.00
   11.1112     33.41     33.21    -26.35     24.00
   11.1213     33.65     33.25    -26.15     24.00
   11.1315     33.41     33.29    -26.43     24.00
   11.1417     32.53     33.33    -27.35     24.00
   11.1518     32.98     33.37    -26.94     24.00
   11.1620     33.33     33.41    -26.63     24.00
   11.1722     32.82     33.45    -27.18     24.00
   11.1823     33.15     33.49    -26.89     24.00
   11.1925     33.77     33.53    -26.31     24.00
   11.2026     33.57     33.57    -26.55     24.00
   11.2128     34.22     33.61    -25.94     24.00
   11.2230     33.95     33.65    -26.25     24.00
   11.2331     33.10     33.69    -27.14     24.00
   11.2433     33.20     33.73    -27.08     24.00
   11.2535     33.69     33.77    -26.63     24.00
   11.2636     34.77     33.82    -25.59     24.00
   11.2738     33.55     33.86    -26.85     24.00
   11.2840     34.13     33.90    -26.31     24.00
   11.2941     34.22     33.94    -26.26     24.00
   11.3043     33.82     33.98    -26.71     24.00
   11.3145     34.29     34.02    -26.28     24.00
   11.3246     33.31     34.06    -27.30     24.00
   11.3348     34.77     34.11    -25.88     24.00
   11.3449     34.65     34.15    -26.04     24.00
   11.3551     33.71     34.19    -27.03     24.00
   11.3653     33.09     34.23    -27.69     24.00
   11.3754     34.69     34.27    -26.13     24.00
   11.3856     34.73     34.32    -26.13     24.00
   11.3958     33.21     34.36    -27.70     24.00
   11.4059     34.07     34.40    -26.88     24.00
   11.4161     34.45     34.45    -26.54     24.00
   11.4263     34.29     34.49    -26.74     24.00
   11.4364     33.66     34.53    -27.42     24.00
   11.4466     33.49     34.58    -27.63     24.00
   11.4568     33.63     34.62    -27.53     24.00
   11.4669     33.92     34.66    -27.29     24.00
   11.4771     34.95     34.71    -26.30     24.00
   11.4873     34.17     34.75    -27.13     24.00
   11.4974     35.17     34.79    -26.17     24.00
   11.5076     34.87     34.84    -26.51     24.00
   11.5177     34.93     34.88    -26.50     24.00
   11.5279     34.65     34.93    -26.82     24.00
   11.5381     34.84     34.97    -26.68     24.00
   11.5482     34.93     35.01    -26.63     24.00
   11.5584     35.91     35.06    -25.70     24.00
   11.5686     34.44     35.10    -27.21     24.00
   11.5787     35.38     35.15    -26.32     24.00
   11.5889     35.12     35.19    -26.62     24.00
   11.5991     35.20     35.24    -26.59     24.00
   11.6092     35.16     35.28    -26.67     24.00
   11.6194     35.36     35.33    -26.52     24.00
   11.6296     34.62     35.38    -27.30     24.00
   11.6397     34.55     35.42    -27.42     24.00
   11.6499     35.26     35.47    -26.75     24.00
   11.6600     35.42     35.51    -26.64     24.00
   11.6702     35.77     35.56    -26.34     24.00
   11.6804     35.28     35.61    -26.87     24.00
   11.6905     34.88     35.65    -27.32     24.00
   11.7007     35.41     35.70    -26.83     24.00
   11.7109     34.68     35.75    -27.61     24.00
   11.7210     35.16     35.79    -27.18     24.00
   11.7312     35.43     35.84    -26.96     24.00
   11.7414     35.73     35.89    -26.70     24.00
   11.7515     35.04     35.93    -27.44     24.00
   11.7617     35.77     35.98    -26.76     24.00
   11.7719     35.60     36.03    -26.97     24.00
   11.7820     35.23     36.08    -27.39     24.00
   11.7922     35.99     36.12    -26.68     24.00
   11.8023     36.10     36.17    -26.62     24.00
   11.8125     35.57     36.22    -27.19     24.00
   11.8227     36.62     36.27    -26.19     24.00
   11.8328     35.61     36.31    -27.25     24.00
   11.8430     36.15     36.36    -26.76     24.00
   11.8532     36.91     36.41    -26.05     24.00
   11.8633     36.37     36.46    -26.64     24.00
   11.8735     36.35     36.51    -26.71     24.00
   11.8837     36.12     36.56    -26.98     24.00
   11.8938     36.46     36.61    -26.69     24.00
   11.9040     36.02     36.66    -27.18     24.00
   11.9142     36.46     36.71    -26.79     24.00
   11.9243     37.20     36.75    -26.10     24.00
   11.9345     36.20     36.80    -27.15     24.00
   11.9447     36.95     36.85    -26.45     24.00
   11.9548     36.37     36.90    -27.08     24.00
   11.9650     36.15     36.95    -27.35     24.00
   11.9751     37.35     37.00    -26.20     24.00
   11.9853     36.52     37.05    -27.08     24.00
   11.9955     36.60     37.10    -27.05     24.00
   12.0056     36.29     37.15    -27.41     24.00
   12.0158     36.63     37.20    -27.12     24.00
   12.0260     36.68     37.26    -27.12     24.00
   12.0361     36.45     37.31    -27.40     24.00
   12.0463     37.34     37.36    -26.56     24.00
   12.0565     37.21     37.41    -26.74     24.00
   12.0666     37.00     37.46    -27.01     24.00
   12.0768     36.54     37.51    -27.52     24.00
   12.0870     36.74     37.56    -27.37     24.00
   12.0971     36.46     37.61    -27.70     24.00
   12.1073     37.03     37.67    -27.18     24.00
   12.1174     37.03     37.72    -27.23     24.00
   12.1276     37.44     37.77    -26.88     24.00
   12.1378     36.91     37.82    -27.46     24.00
   12.1479     36.90     37.87    -27.52     24.00
   12.1581     36.48     37.93    -27.99     24.00
   12.1683     37.66     37.98    -26.86     24.00
   12.1784     37.47     38.03    -27.11     24.00
   12.1886     37.43     38.08    -27.20     24.00
   12.1988     36.92     38.14    -27.76     24.00
   12.2089     37.70     38.19    -27.04     24.00
   12.2191     38.25     38.24    -26.54     24.00
   12.2293     38.09     38.30    -26.75     24.00
   12.2394     36.80     38.35    -28.10     24.00
   12.2496     38.53     38.40    -26.42     24.00
   12.2598     37.10     38.46    -27.90     24.00
   12.2699     37.56     38.51    -27.50     24.00
   12.2801     39.01     38.56    -26.10     24.00
   12.2902     38.24     38.62    -26.92     24.00
   12.3004     37.55     38.67    -27.67     24.00
   12.3106     39.16     38.73    -26.11     24.00
   12.3207     37.60     38.78    -27.73     24.00
   12.3309     38.43     38.84    -26.95     24.00
   12.3411     38.71     38.89    -26.73     24.00
   12.3512     37.64     38.95    -27.85     24.00
   12.3614     38.88     39.00    -26.67     24.00
   12.3716     37.40     39.06    -28.20     24.00
   12.3817     37.99     39.11    -27.67     24.00
   12.3919     38.55     39.17    -27.16     24.00
   12.4021     39.60     39.22    -26.17     24.00
   12.4122     38.01     39.28    -27.81     24.00
   12.4224     38.54     39.33    -27.34     24.00
   12.4325     39.41     39.39    -26.53     24.00
   12.4427     38.99     39.45    -27.00     24.00
   12.4529     38.67     39.50    -27.38     24.00
   12.4630     38.91     39.56    -27.19     24.00
   12.4732     39.27     39.61    -26.89     24.00
   12.4834     39.36     39.67    -26.86     24.00
   12.4935     38.53     39.73    -27.74     24.00
   12.5037     38.79     39.78    -27.54     24.00
   12.5139     38.77     39.84    -27.62     24.00
   12.5240     38.30     39.90    -28.14     24.00
   12.5342     39.31     39.96    -27.19     24.00
   12.5444     39.29     40.01    -27.27     24.00
   12.5545     38.00     40.07    -28.62     24.00
   12.5647     39.43     40.13    -27.24     24.00
   12.5749     38.68     40.19    -28.05     24.00
   12.5850     40.00     40.24    -26.79     24.00
   12.5952     38.97     40.30    -27.88     24.00
   12.6053     39.93     40.36    -26.98     24.00
   12.6155     39.76     40.42    -27.20     24.00
   12.6257     39.54     40.48    -27.48     24.00
   12.6358     39.88     40.53    -27.20     24.00
   12.6460     41.18     40.59    -25.96     24.00
   12.6562     39.62     40.65    -27.58     24.00
   12.6663     39.64     40.71    -27.62     24.00
   12.6765     39.62     40.77    -27.70     24.00
   12.6867     39.66     40.83    -27.72     24.00
   12.6968     40.06     40.89    -27.37     24.00
   12.7070     40.32     40.95    -27.17     24.00
   12.7172     40.52     41.01    -27.03     24.00
   12.7273     39.49     41.07    -28.12     24.00
   12.7375     39.86     41.13    -27.81     24.00
   12.7476     40.07     41.19    -27.66     24.00
   12.7578     40.15     41.25    -27.64     24.00
   12.7680     40.18     41.31    -27.67     24.00
   12.7781     40.62     41.37    -27.29     24.00
   12.7883     40.42     41.43    -27.55     24.00
   12.7985     40.70     41.49    -27.33     24.00
   12.8086     40.88     41.55    -27.22     24.00
   12.8188     41.17     41.61    -26.99     24.00
   12.8290     41.38     41.67    -26.84     24.00
   12.8391     41.71     41.73    -26.57     24.00
   12.8493     41.43     41.79    -26.91     24.00
   12.8595     41.30     41.86    -27.10     24.00
   12.8696     40.86     41.92    -27.60     24.00
   12.8798     41.25     41.98    -27.27     24.00
   12.8900     41.62     42.04    -26.97     24.00
   12.9001     41.57     42.10    -27.08     24.00
   12.9103     41.62     42.16    -27.09     24.00
   12.9204     41.94     42.23    -26.83     24.00
   12.9306     41.71     42.29    -27.12     24.00
   12.9408     41.59     42.35    -27.31     24.00
   12.9509     41.32     42.41    -27.64     24.00
   12.9611     41.73     42.48    -27.29     24.00
   12.9713     41.76     42.54    -27.33     24.00
   12.9814     41.41     42.60    -27.74     24.00
   12.9916     41.56     42.67    -27.65     24.00
   13.0018     41.89     42.73    -27.38     24.00
   13.0119     41.76     42.79    -27.58     24.00
   13.0221     41.65     42.86    -27.75     24.00
   13.0323     42.37     42.92    -27.09     24.00
   13.0424     43.07     42.98    -26.46     24.00
   13.0526     43.16     43.05    -26.43     24.00
   13.0627     42.59     43.11    -27.07     24.00
   13.0729     42.65     43.17    -27.07     24.00
   13.0831     42.37     43.24    -27.41     24.00
   13.0932     42.87     43.30    -26.98     24.00
   13.1034     42.53     43.37    -27.38     24.00
   13.1136     42.90     43.43    -27.08     24.00
   13.1237     42.33     43.50    -27.71     24.00
   13.1339     43.46     43.56    -26.65     24.00
   13.1441     43.05     43.63    -27.12     24.00
   13.1542     42.70     43.69    -27.54     24.00
   13.1644     43.76     43.76    -26.54     24.00
   13.1746     42.62     43.82    -27.75     24.00
   13.1847     42.51     43.89    -27.92     24.00
   13.1949     43.29     43.95    -27.21     24.00
   13.2051     43.46     44.02    -27.11     24.00
   13.2152     43.15     44.09    -27.48     24.00
   13.2254     44.37     44.15    -26.33     24.00
   13.2355     43.82     44.22    -26.94     24.00
   13.2457     43.99     44.29    -26.84     24.00
   13.2559     43.68     44.35    -27.22     24.00
   13.2660     43.74     44.42    -27.22     24.00
   13.2762     43.82     44.49    -27.21     24.00
   13.2864     43.95     44.55    -27.15     24.00
   13.2965     42.79     44.62    -28.38     24.00
   13.3067     44.09     44.69    -27.14     24.00
   13.3169     43.37     44.75    -27.93     24.00
   13.3270     44.98     44.82    -26.39     24.00
   13.3372     44.33     44.89    -27.11     24.00
   13.3474     44.84     44.96    -26.66     24.00
   13.3575     44.47     45.03    -27.10     24.00
   13.3677     43.82     45.09    -27.82     24.00
   13.3778     44.51     45.16    -27.20     24.00
   13.3880     44.34     45.23    -27.44     24.00
   13.3982     45.09     45.30    -26.75     24.00
   13.4083     45.10     45.37    -26.81     24.00
   13.4185     44.67     45.44    -27.31     24.00
   13.4287     45.55     45.51    -26.50     24.00
   13.4388     45.06     45.57    -27.06     24.00
   13.4490     44.79     45.64    -27.40     24.00
   13.4592     45.91     45.71    -26.35     24.00
   13.4693     44.09     45.78    -28.24     24.00
   13.4795     45.70     45.85    -26.70     24.00
   13.4897     45.73     45.92    -26.74     24.00
   13.4998     45.29     45.99    -27.25     24.00
   13.5100     45.59     46.06    -27.02     24.00
   13.5201     46.46     46.13    -26.22     24.00
   13.5303     44.94     46.20    -27.81     24.00
   13.5405     45.80     46.27    -27.02     24.00
   13.5506     45.77     46.34    -27.12     24.00
   13.5608     45.44     46.42    -27.52     24.00
   13.5710     46.56     46.49    -26.47     24.00
   13.5811     46.32     46.56    -26.78     24.00
   13.5913     46.47     46.63    -26.70     24.00
   13.6015     46.90     46.70    -26.35     24.00
   13.6116     46.52     46.77    -26.80     24.00
   13.6218     46.11     46.84    -27.28     24.00
   13.6320     46.71     46.92    -26.75     24.00
   13.6421     46.79     46.99    -26.74     24.00
   13.6523     46.29     47.06    -27.32     24.00
   13.6625     47.12     47.13    -26.56     24.00
   13.6726     47.46     47.21    -26.29     24.00
   13.6828     47.15     47.28    -26.67     24.00
   13.6929     47.57     47.35    -26.33     24.00
   13.7031     47.54     47.43    -26.43     24.00
   13.7133     46.84     47.50    -27.20     24.00
   13.7234     46.77     47.57    -27.35     24.00
   13.7336     47.49     47.65    -26.70     24.00
   13.7438     48.25     47.72    -26.02     24.00
   13.7539     47.50     47.79    -26.84     24.00
   13.7641     47.35     47.87    -27.06     24.00
   13.7743     48.19     47.94    -26.30     24.00
   13.7844     47.52     48.02    -27.04     24.00
   13.7946     47.82     48.09    -26.82     24.00
   13.8048     48.40     48.17    -26.31     24.00
   13.8149     47.52     48.24    -27.27     24.00
   13.8251     48.65     48.32    -26.21     24.00
   13.8352     48.76     48.39    -26.18     24.00
   13.8454     47.05     48.47    -27.97     24.00
   13.8556     48.51     48.55    -26.58     24.00
   13.8657     49.31     48.62    -25.86     24.00
   13.8759     49.69     48.70    -25.55     24.00
   13.8861     47.86     48.77    -27.46     24.00
   13.8962     48.96     48.85    -26.44     24.00
   13.9064     49.12     48.93    -26.35     24.00
   13.9166     48.98     49.01    -26.57     24.00
   13.9267     49.26     49.08    -26.37     24.00
   13.9369     48.95     49.16    -26.76     24.00
   13.9471     49.62     49.24    -26.16     24.00
   13.9572     49.44     49.32    -26.42     24.00
   13.9674     49.03     49.40    -26.91     24.00
   13.9776     49.08     49.47    -26.94     24.00
   13.9877     48.23     49.55    -27.87     24.00
   13.9979     49.93     49.63    -26.25     24.00
   14.0080     50.54     49.71    -25.72     24.00
   14.0182     50.70     49.79    -25.64     24.00
   14.0284     50.96     49.87    -25.46     24.00
   14.0385     49.68     49.95    -26.82     24.00
   14.0487     49.49     50.03    -27.09     24.00
   14.0589     49.45     50.11    -27.21     24.00
   14.0690     50.82     50.19    -25.92     24.00
   14.0792     50.24     50.27    -26.58     24.00
   14.0894     50.60     50.35    -26.30     24.00
   14.0995     51.47     50.43    -25.51     24.00
   14.1097     50.81     50.52    -26.25     24.00
   14.1199     51.70     50.60    -25.44     24.00
   14.1300     50.93     50.68    -26.30     24.00
   14.1402     50.40     50.76    -26.91     24.00
   14.1503     51.54     50.85    -25.85     24.00
   14.1605     52.14     50.93    -25.34     24.00
   14.1707     50.37     51.01    -27.19     24.00
   14.1808     50.60     51.10    -27.04     24.00
   14.1910     52.07     51.18    -25.66     24.00
   14.2012     51.87     51.27    -25.94     24.00
   14.2113     51.91     51.35    -25.99     24.00
   14.2215     52.70     51.43    -25.28     24.00
   14.2317     51.77     51.52    -26.30     24.00
   14.2418     51.55     51.60    -26.60     24.00
   14.2520     52.55     51.69    -25.69     24.00
   14.2622     52.31     51.78    -26.01     24.00
   14.2723     52.83     51.86    -25.58     24.00
   14.2825     53.42     51.95    -25.08     24.00
   14.2927     51.79     52.04    -26.79     24.00
   14.3028     52.22     52.12    -26.45     24.00
   14.3130     53.56     52.21    -25.20     24.00
   14.3231     52.15     52.30    -26.70     24.00
   14.3333     53.34     52.39    -25.60     24.00
   14.3435     54.07     52.48    -24.95     24.00
   14.3536     54.48     52.57    -24.63     24.00
   14.3638     52.92     52.66    -26.28     24.00
   14.3740     54.42     52.75    -24.87     24.00
   14.3841     52.90     52.84    -26.48     24.00
   14.3943     53.60     52.93    -25.87     24.00
   14.4045     53.51     53.02    -26.06     24.00
   14.4146     54.27     53.11    -25.39     24.00
   14.4248     54.23     53.20    -25.52     24.00
   14.4350     54.82     53.30    -25.02     24.00
   14.4451     55.10     53.39    -24.83     24.00
   14.4553     55.16     53.48    -24.87     24.00
   14.4654     55.71     53.57    -24.41     24.00
   14.4756     54.73     53.67    -25.49     24.00
   14.4858     54.33     53.76    -25.98     24.00
   14.4959     55.08     53.86    -25.32     24.00
   14.5061     55.12     53.95    -25.38     24.00
   14.5163     55.04     54.05    -25.56     24.00
   14.5264     55.70     54.15    -24.99     24.00
   14.5366     55.12     54.24    -25.67     24.00
   14.5468     55.58     54.34    -25.31     24.00
   14.5569     55.90     54.44    -25.08     24.00
   14.5671     55.74     54.54    -25.34     24.00
   14.5773     55.29     54.64    -25.89     24.00
   14.5874     57.69     54.73    -23.59     24.00
   14.5976     56.05     54.83    -25.33     24.00
   14.6078     55.65     54.93    -25.83     24.00
   14.6179     56.81     55.03    -24.77     24.00
   14.6281     55.64     55.14    -26.04     24.00
   14.6382     55.82     55.24    -25.96     24.00
   14.6484     56.60     55.34    -25.29     24.00
   14.6586     56.52     55.44    -25.47     24.00
   14.6687     56.75     55.55    -25.34     24.00
   14.6789     57.58     55.65    -24.62     24.00
   14.6891     56.60     55.75    -25.70     24.00
   14.6992     57.30     55.86    -25.10     24.00
   14.7094     58.46     55.96    -24.05     24.00
   14.7196     57.09     56.07    -25.53     24.00
   14.7297     56.94     56.18    -25.78     24.00
   14.7399     57.72     56.29    -25.11     24.00
   14.7501     58.05     56.39    -24.89     24.00
   14.7602     58.80     56.50    -24.25     24.00
   14.7704     58.45     56.61    -24.71     24.00
   14.7805     58.35     56.72    -24.92     24.00
   14.7907     58.65     56.83    -24.73     24.00
   14.8009     58.69     56.94    -24.80     24.00
   14.8110     58.82     57.05    -24.78     24.00
   14.8212     58.97     57.17    -24.74     24.00
   14.8314     57.49     57.28    -26.34     24.00
   14.8415     58.98     57.39    -24.96     24.00
   14.8517     58.37     57.51    -25.68     24.00
   14.8619     58.37     57.62    -25.80     24.00
   14.8720     58.46     57.74    -25.82     24.00
   14.8822     59.57     57.86    -24.83     24.00
   14.8924     60.37     57.97    -24.15     24.00
   14.9025     59.76     58.09    -24.88     24.00
   14.9127     59.49     58.21    -25.26     24.00
   14.9229     60.43     58.33    -24.44     24.00
   14.9330     59.58     58.45    -25.41     24.00
   14.9432     60.77     58.57    -24.35     24.00
   14.9533     60.49     58.69    -24.75     24.00
   14.9635     60.82     58.81    -24.54     24.00
   14.9737     61.58     58.94    -23.90     24.00
   14.9838     60.27     59.06    -25.34     24.00
   14.9940     61.13     59.18    -24.60     24.00
   15.0042     60.39     59.31    -25.47     24.00
   15.0143     60.06     59.44    -25.92     24.00
   15.0245     60.92     59.56    -25.19     24.00
   15.0347     61.65     59.69    -24.59     24.00
   15.0448     61.13     59.82    -25.24     24.00
   15.0550     62.43     59.95    -24.07     24.00
   15.0652     61.32     60.08    -25.31     24.00
   15.0753     63.20     60.21    -23.56     24.00
   15.0855     61.88     60.34    -25.01     24.00
   15.0956     62.12     60.48    -24.90     24.00
   15.1058     62.64     60.61    -24.52     24.00
   15.1160     64.55     60.75    -22.74     24.00
   15.1261     61.21     60.88    -26.22     24.00
   15.1363     63.32     61.02    -24.24     24.00
   15.1465     63.16     61.15    -24.54     24.00
   15.1566     63.35     61.29    -24.49     24.00
   15.1668     62.93     61.43    -25.05     24.00
   15.1770     63.85     61.57    -24.27     24.00
   15.1871     63.66     61.71    -24.60     24.00
   15.1973     64.35     61.85    -24.05     24.00
   15.2075     63.21     62.00    -25.33     24.00
   15.2176     64.68     62.14    -24.01     24.00
   15.2278     63.47     62.29    -25.36     24.00
   15.2380     64.46     62.43    -24.52     24.00
   15.2481     65.23     62.58    -23.89     24.00
   15.2583     65.03     62.73    -24.24     24.00
   15.2684     62.36     62.87    -27.06     24.00
   15.2786     65.55     63.02    -24.02     24.00
   15.2888     64.68     63.17    -25.04     24.00
   15.2989     64.77     63.32    -25.10     24.00
   15.3091     65.53     63.48    -24.49     24.00
   15.3193     65.78     63.63    -24.40     24.00
   15.3294     65.66     63.78    -24.67     24.00
   15.3396     64.16     63.94    -26.33     24.00
   15.3498     66.87     64.10    -23.77     24.00
   15.3599     65.65     64.25    -25.15     24.00
   15.3701     65.80     64.41    -25.16     24.00
   15.3803     66.75     64.57    -24.37     24.00
   15.3904     67.91     64.73    -23.37     24.00
   15.4006     66.09     64.89    -25.35     24.00
   15.4107     67.58     65.06    -24.02     24.00
   15.4209     66.27     65.22    -25.50     24.00
   15.4311     66.18     65.38    -25.75     24.00
   15.4412     66.86     65.55    -25.23     24.00
   15.4514     67.23     65.72    -25.03     24.00
   15.4616     67.98     65.88    -24.45     24.00
   15.4717     67.20     66.05    -25.40     24.00
   15.4819     67.59     66.22    -25.18     24.00
   15.4921     67.02     66.39    -25.92     24.00
   15.5022     68.87     66.56    -24.24     24.00
   15.5124     68.88     66.74    -24.40     24.00
   15.5226     68.45     66.91    -25.01     24.00
   15.5327     69.67     67.09    -23.96     24.00
   15.5429     68.59     67.26    -25.22     24.00
   15.5530     68.65     67.44    -25.33     24.00
   15.5632     69.51     67.62    -24.65     24.00
   15.5734     67.63     67.80    -26.71     24.00
   15.5835     68.59     67.98    -25.93     24.00
   15.5937     69.68     68.16    -25.02     24.00
   15.6039     69.13     68.34    -25.76     24.00
   15.6140     70.55     68.52    -24.52     24.00
   15.6242     70.46     68.71    -24.79     24.00
   15.6344     70.23     68.89    -25.21     24.00
   15.6445     70.79     69.08    -24.84     24.00
   15.6547     71.05     69.27    -24.76     24.00
   15.6649     71.85     69.46    -24.15     24.00
   15.6750     71.67     69.65    -24.52     24.00
   15.6852     70.86     69.84    -25.52     24.00
   15.6954     72.34     70.03    -24.24     24.00
   15.7055     71.23     70.22    -25.54     24.00
   15.7157     71.36     70.42    -25.60     24.00
   15.7258     71.69     70.61    -25.47     24.00
   15.7360     72.26     70.81    -25.09     24.00
   15.7462     71.54     71.00    -26.01     24.00
   15.7563     72.33     71.20    -25.42     24.00
   15.7665     72.30     71.40    -25.65     24.00
   15.7767     72.48     71.60    -25.67     24.00
   15.7868     73.50     71.80    -24.85     24.00
   15.7970     72.38     72.00    -26.17     24.00
   15.8072     72.42     72.21    -26.33     24.00
   15.8173     71.20     72.41    -27.75     24.00
   15.8275     73.99     72.61    -25.17     24.00
   15.8377     73.07     72.82    -26.30     24.00
   15.8478     73.18     73.02    -26.39     24.00
   15.8580     73.64     73.23    -26.14     24.00
   15.8681     73.68     73.44    -26.31     24.00
   15.8783     74.90     73.65    -25.30     24.00
   15.8885     73.46     73.86    -26.95     24.00
   15.8986     74.59     74.07    -26.03     24.00
   15.9088     73.01     74.28    -27.82     24.00
   15.9190     74.55     74.50    -26.49     24.00
   15.9291     75.20     74.71    -26.06     24.00
   15.9393     76.98     74.92    -24.49     24.00
   15.9495     74.58     75.14    -27.11     24.00
   15.9596     75.21     75.36    -26.69     24.00
   15.9698     73.74     75.57    -28.38     24.00
   15.9800     74.98     75.79    -27.36     24.00
   15.9901     74.29     76.01    -28.27     24.00
   16.0003     74.93     76.23    -27.85     24.00
   16.0105     75.27     76.45    -27.73     24.00
   16.0206     76.12     76.67    -27.10     24.00
   16.0308     76.87     76.89    -26.57     24.00
   16.0409     77.32     77.11    -26.34     24.00
   16.0511     77.12     77.34    -26.76     24.00
   16.0613     75.78     77.56    -28.33     24.00
   16.0714     75.66     77.78    -28.67     24.00
   16.0816     76.17     78.01    -28.39     24.00
   16.0918     77.37     78.24    -27.41     24.00
   16.1019     76.13     78.46    -28.88     24.00
   16.1121     78.65     78.69    -26.58     24.00
   16.1223     77.73     78.92    -27.73     24.00
   16.1324     78.61     79.14    -27.08     24.00
   16.1426     78.64     79.37    -27.28     24.00
   16.1528     78.90     79.60    -27.25     24.00
   16.1629     78.53     79.83    -27.85     24.00
   16.1731     79.32     80.06    -27.29     24.00
   16.1832     78.26     80.29    -28.58     24.00
   16.1934     79.92     80.52    -27.15     24.00
   16.2036     79.54     80.75    -27.76     24.00
   16.2137     78.50     80.98    -29.03     24.00
   16.2239     79.88     81.22    -27.88     24.00
   16.2341     79.33     81.45    -28.66     24.00
   16.2442     80.44     81.68    -27.79     24.00
   16.2544     79.68     81.91    -28.78     24.00
   16.2646     80.32     82.15    -28.37     24.00
   16.2747     79.43     82.38    -29.50     24.00
   16.2849     80.71     82.61    -28.45     24.00
   16.2951     80.73     82.85    -28.66     24.00
   16.3052     81.12     83.08    -28.51     24.00
   16.3154     82.61     83.32    -27.25     24.00
   16.3256     82.97     83.55    -27.13     24.00
   16.3357     81.95     83.78    -28.38     24.00
   16.3459     80.82     84.02    -29.75     24.00
   16.3560     83.37     84.25    -27.43     24.00
   16.3662     83.41     84.49    -27.62     24.00
   16.3764     83.37     84.72    -27.90     24.00
   16.3865     82.32     84.96    -29.18     24.00
   16.3967     83.12     85.19    -28.62     24.00
   16.4069     83.41     85.43    -28.56     24.00
   16.4170     86.04     85.66    -26.17     24.00
   16.4272     83.80     85.90    -28.64     24.00
   16.4374     83.35     86.13    -29.33     24.00
   16.4475     83.55     86.36    -29.36     24.00
   16.4577     83.94     86.60    -29.20     24.00
   16.4679     84.63     86.83    -28.75     24.00
   16.4780     84.84     87.06    -28.77     24.00
   16.4882     83.44     87.30    -30.40     24.00
   16.4983     85.43     87.53    -28.64     24.00
   16.5085     86.35     87.76    -27.96     24.00
   16.5187     86.06     87.99    -28.48     24.00
   16.5288     86.60     88.22    -28.17     24.00
   16.5390     87.09     88.45    -27.91     24.00
   16.5492     87.38     88.68    -27.85     24.00
   16.5593     85.24     88.91    -30.22     24.00
   16.5695     86.64     89.14    -29.05     24.00
   16.5797     85.99     89.37    -29.93     24.00
   16.5898     87.32     89.60    -28.83     24.00
   16.6000     87.52     89.83    -28.85     24.00
   16.6102     86.99     90.06    -29.61     24.00
   16.6203     88.66     90.28    -28.17     24.00
   16.6305     89.09     90.51    -27.96     24.00
   16.6407     86.75     90.73    -30.53     24.00
   16.6508     89.04     90.95    -28.46     24.00
   16.6610     88.70     91.18    -29.02     24.00
   16.6711     89.95     91.40    -27.99     24.00
   16.6813     89.57     91.62    -28.60     24.00
   16.6915     90.44     91.84    -27.95     24.00
   16.7016     89.14     92.06    -29.46     24.00
   16.7118     89.53     92.28    -29.29     24.00
   16.7220     90.97     92.50    -28.07     24.00
   16.7321     91.31     92.71    -27.95     24.00
   16.7423     90.61     92.93    -28.86     24.00
   16.7525     90.85     93.14    -28.84     24.00
   16.7626     91.57     93.35    -28.33     24.00
   16.7728     93.96     93.57    -26.15     24.00
   16.7830     91.85     93.78    -28.47     24.00
   16.7931     92.40     93.99    -28.13     24.00
   16.8033     91.68     94.19    -29.06     24.00
   16.8134     91.74     94.40    -29.21     24.00
   16.8236     92.17     94.61    -28.98     24.00
   16.8338     93.46     94.81    -27.90     24.00
   16.8439     94.62     95.01    -26.94     24.00
   16.8541     92.22     95.22    -29.54     24.00
   16.8643     93.71     95.42    -28.25     24.00
   16.8744     94.82     95.61    -27.34     24.00
   16.8846     95.96     95.81    -26.40     24.00
   16.8948     93.36     96.01    -29.19     24.00
   16.9049     93.46     96.20    -29.29     24.00
   16.9151     94.92     96.39    -28.02     24.00
   16.9253     93.77     96.59    -29.36     24.00
   16.9354     94.52     96.77    -28.80     24.00
   16.9456     93.70     96.96    -29.81     24.00
   16.9558     96.22     97.15    -27.47     24.00
   16.9659     93.87     97.33    -30.01     24.00
   16.9761     94.14     97.51    -29.92     24.00
   16.9862     96.45     97.69    -27.79     24.00
   16.9964     96.16     97.87    -28.26     24.00
   17.0066     96.45     98.05    -28.15     24.00
   17.0167     94.98     98.23    -29.79     24.00
   17.0269     97.44     98.40    -27.51     24.00
   17.0371     95.87     98.57    -29.25     24.00
   17.0472     95.77     98.74    -29.52     24.00
   17.0574     97.81     98.91    -27.65     24.00
   17.0676     95.79     99.08    -29.83     24.00
   17.0777     96.07     99.24    -29.71     24.00
   17.0879     97.71     99.40    -28.24     24.00
   17.0981     96.66     99.56    -29.45     24.00
   17.1082     98.39     99.72    -27.87     24.00
   17.1184     97.07     99.88    -29.35     24.00
   17.1285     97.92    100.03    -28.65     24.00
   17.1387     97.24    100.18    -29.49     24.00
   17.1489     98.08    100.33    -28.80     24.00
   17.1590     97.85    100.48    -29.17     24.00
   17.1692     97.97    100.63    -29.20     24.00
   17.1794     98.93    100.77    -28.39     24.00
   17.1895     98.76    100.91    -28.70     24.00
   17.1997     99.51    101.05    -28.09     24.00
   17.2099     98.93    101.19    -28.81     24.00
   17.2200     99.49    101.32    -28.38     24.00
   17.2302    100.34    101.46    -27.66     24.00
   17.2404     99.69    101.59    -28.45     24.00
   17.2505     99.95    101.72    -28.32     24.00
   17.2607     99.41    101.85    -28.98     24.00
   17.2709    100.77    101.97    -27.75     24.00
   17.2810     99.71    102.10    -28.93     24.00
   17.2912     99.45    102.22    -29.32     24.00
   17.3013    100.65    102.34    -28.24     24.00
   17.3115    103.52    102.46    -25.49     24.00
   17.3217    101.67    102.58    -27.45     24.00
   17.3318    101.37    102.69    -27.87     24.00
   17.3420    101.42    102.81    -27.93     24.00
   17.3522    103.11    102.92    -26.36     24.00
   17.3623    102.94    103.03    -26.64     24.00
   17.3725    101.12    103.14    -28.57     24.00
   17.3827    103.38    103.25    -26.42     24.00
   17.3928    103.56    103.36    -26.34     24.00
   17.4030    101.66    103.46    -28.35     24.00
   17.4132    103.21    103.57    -26.91     24.00
   17.4233    103.56    103.68    -26.66     24.00
   17.4335    104.05    103.78    -26.28     24.00
   17.4436    104.54    103.89    -25.89     24.00
   17.4538    104.83    103.99    -25.71     24.00
   17.4640    104.51    104.10    -26.13     24.00
   17.4741    105.77    104.20    -24.98     24.00
   17.4843    105.26    104.31    -25.59     24.00
   17.4945    106.37    104.41    -24.59     24.00
   17.5046    106.53    104.52    -24.54     24.00
   17.5148    106.90    104.63    -24.28     24.00
   17.5250    106.30    104.74    -24.99     24.00
   17.5351    106.57    104.86    -24.83     24.00
   17.5453    106.76    104.97    -24.76     24.00
   17.5555    107.63    105.09    -24.01     24.00
   17.5656    108.16    105.22    -23.60     24.00
   17.5758    108.69    105.34    -23.20     24.00
   17.5859    108.66    105.48    -23.36     24.00
   17.5961    107.60    105.61    -24.56     24.00
   17.6063    109.05    105.75    -23.25     24.00
   17.6164    108.82    105.90    -23.63     24.00
   17.6266    108.87    106.06    -23.73     24.00
   17.6368    110.98    106.22    -21.78     24.00
   17.6469    110.52    106.39    -22.41     24.00
   17.6571    110.83    106.57    -22.28     24.00
   17.6673    112.68    106.76    -20.62     24.00
   17.6774    110.08    106.95    -23.42     24.00
   17.6876    111.91    107.16    -21.80     24.00
   17.6978    112.04    107.39    -21.89     24.00
   17.7079    112.00    107.62    -22.16     24.00
   17.7181    112.41    107.87    -22.00     24.00
   17.7283    114.26    108.13    -20.42     24.00
   17.7384    113.62    108.41    -21.33     24.00
   17.7486    115.96    108.70    -19.29     24.00
   17.7587    114.32    109.02    -21.24     24.00
   17.7689    114.68    109.35    -21.22     24.00
   17.7791    115.05    109.70    -21.20     24.00
   17.7892    115.76    110.08    -20.86     24.00
   17.7994    115.90    110.47    -21.12     24.00
   17.8096    116.96    110.90    -20.48     24.00
   17.8197    116.45    111.34    -21.43     24.00
   17.8299    116.30    111.81    -22.06     24.00
   17.8401    118.69    112.31    -20.17     24.00
   17.8502    118.92    112.84    -20.46     24.00
   17.8604    119.28    113.40    -20.67     24.00
   17.8706    119.30    113.99    -21.24     24.00
   17.8807    122.30    114.61    -18.86     24.00
   17.8909    121.35    115.27    -20.47     24.00
   17.9010    122.26    115.96    -20.25     24.00
   17.9112    123.83    116.70    -19.41     24.00
   17.9214    121.86    117.47    -22.16     24.00
   17.9315    125.52    118.28    -19.30     24.00
   17.9417    125.43    119.13    -20.25     24.00
   17.9519    127.05    120.03    -19.53     24.00
   17.9620    125.30    120.96    -22.21     24.00
   17.9722    128.70    121.95    -19.80     24.00
   17.9824    128.23    122.98    -21.30     24.00
   17.9925    128.60    124.06    -22.00     24.00
   18.0027    129.99    125.19    -21.74     24.00
   18.0129    128.51    126.37    -24.40     24.00
   18.0230    130.68    127.59    -23.45     24.00
   18.0332    133.75    128.87    -21.67     24.00
   18.0434    134.54    130.21    -22.21     24.00
   18.0535    132.16    131.58    -25.97     24.00
   18.0637    138.38    133.02    -21.19     24.00
   18.0738    138.05    134.51    -23.00     24.00
   18.0840    136.73    136.06    -25.87     24.00
   18.0942    139.94    137.67    -24.27     24.00
   18.1043    139.97    139.31    -25.89     24.00
   18.1145    140.60    141.03    -26.97     24.00
   18.1247    141.39    142.80    -27.96     24.00
   18.1348    143.12    144.61    -28.03     24.00
   18.1450    143.57    146.49    -29.46     24.00
   18.1552    147.01    148.42    -27.96     24.00
   18.1653    149.33    150.39    -27.60     24.00
   18.1755    148.59    152.43    -30.38     24.00
   18.1857    150.01    154.51    -31.05     24.00
   18.1958    151.96    156.63    -31.22     24.00
   18.2060    152.26    158.82    -33.10     24.00
   18.2161    155.55    161.02    -32.02     24.00
   18.2263    159.52    163.30    -30.32     24.00
   18.2365    159.87    165.61    -32.29     24.00
   18.2466    161.63    167.95    -32.86     24.00
   18.2568    163.45    170.34    -33.43     24.00
   18.2670    165.02    172.76    -34.29     24.00
   18.2771    169.95    175.20    -31.79     24.00
   18.2873    169.74    177.68    -34.49     24.00
   18.2975    172.27    180.19    -34.47     24.00
   18.3076    176.49    182.70    -32.76     24.00
   18.3178    178.17    185.25    -33.63     24.00
   18.3280    178.71    187.82    -35.65     24.00
   18.3381    181.76    190.36    -35.15     24.00
   18.3483    184.19    192.94    -35.30     24.00
   18.3585    185.96    195.53    -36.11     24.00
   18.3686    189.02    198.08    -35.61     24.00
   18.3788    193.52    200.65    -33.68     24.00
   18.3889    195.41    203.19    -34.32     24.00
   18.3991    199.38    205.73    -32.90     24.00
   18.4093    202.79    208.25    -32.01     24.00
   18.4194    201.00    210.73    -36.27     24.00
   18.4296    208.17    213.19    -31.57     24.00
   18.4398    208.77    215.62    -33.40     24.00
   18.4499    211.36    217.99    -33.17     24.00
   18.4601    216.99    220.33    -29.89     24.00
   18.4703    219.63    222.62    -29.54     24.00
   18.4804    220.00    224.84    -31.38     24.00
   18.4906    225.34    227.02    -28.22     24.00
   18.5008    228.86    229.13    -26.81     24.00
   18.5109    229.23    231.15    -28.46     24.00
   18.5211    235.32    233.11    -24.34     24.00
   18.5312    239.60    234.98    -21.93     24.00
   18.5414    240.02    236.78    -23.31     24.00
   18.5516    245.07    238.50    -19.97     24.00
   18.5617    246.04    240.11    -20.61     24.00
   18.5719    247.41    241.63    -20.77     24.00
   18.5821    250.32    243.06    -19.29     24.00
   18.5922    253.58    244.37    -17.34     24.00
   18.6024    252.22    245.59    -19.91     24.00
   18.6126    255.40    246.70    -17.84     24.00
   18.6227    255.60    247.68    -18.63     24.00
   18.6329    259.06    248.56    -16.05     24.00
   18.6431    260.17    249.33    -15.70     24.00
   18.6532    262.35    249.97    -14.16     24.00
   18.6634    260.38    250.49    -16.66     24.00
   18.6736    264.59    250.89    -12.85     24.00
   18.6837    264.05    251.17    -13.66     24.00
   18.6939    265.33    251.32    -12.54     24.00
   18.7040    263.42    251.35    -14.48     24.00
   18.7142    263.26    251.26    -14.54     24.00
   18.7244    262.31    251.04    -15.28     24.00
   18.7345    264.23    250.70    -13.02     24.00
   18.7447    262.31    250.24    -14.47     24.00
   18.7549    260.56    249.65    -15.64     24.00
   18.7650    260.10    248.95    -15.40     24.00
   18.7752    255.78    248.13    -18.89     24.00
   18.7854    254.77    247.18    -18.96     24.00
   18.7955    252.74    246.14    -19.94     24.00
   18.8057    252.59    244.97    -18.93     24.00
   18.8159    250.50    243.69    -19.74     24.00
   18.8260    245.05    242.32    -23.82     24.00
   18.8362    244.87    240.84    -22.52     24.00
   18.8463    242.99    239.27    -22.83     24.00
   18.8565    236.96    237.59    -27.18     24.00
   18.8667    238.40    235.83    -23.97     24.00
   18.8768    236.30    233.99    -24.23     24.00
   18.8870    230.90    232.05    -27.70     24.00
   18.8972    227.52    230.04    -29.06     24.00
   18.9073    222.18    227.97    -32.33     24.00
   18.9175    222.71    225.81    -29.65     24.00
   18.9277    222.52    223.59    -27.62     24.00
   18.9378    213.66    221.33    -34.22     24.00
   18.9480    212.75    219.00    -32.80     24.00
   18.9582    210.74    216.62    -32.43     24.00
   18.9683    205.03    214.22    -35.74     24.00
   18.9785    202.68    211.76    -35.62     24.00
   18.9887    201.49    209.26    -34.32     24.00
   18.9988    200.21    206.76    -33.10     24.00
   19.0090    193.48    204.22    -37.28     24.00
   19.0191    193.60    201.68    -34.62     24.00
   19.0293    189.98    199.10    -35.67     24.00
   19.0395    187.49    196.52    -35.57     24.00
   19.0496    183.88    193.95    -36.62     24.00
   19.0598    181.85    191.36    -36.06     24.00
   19.0700    178.86    188.78    -36.47     24.00
   19.0801    178.53    186.24    -34.25     24.00
   19.0903    175.89    183.68    -34.33     24.00
   19.1005    174.49    181.14    -33.19     24.00
   19.1106    170.10    178.65    -35.09     24.00
   19.1208    167.34    176.16    -35.36     24.00
   19.1310    167.24    173.70    -33.00     24.00
   19.1411    165.02    171.29    -32.82     24.00
   19.1513    163.83    168.90    -31.62     24.00
   19.1614    160.76    166.57    -32.36     24.00
   19.1716    158.27    164.26    -32.54     24.00
   19.1818    154.26    162.00    -34.29     24.00
   19.1919    156.49    159.81    -29.86     24.00
   19.2021    153.85    157.64    -30.33     24.00
   19.2123    151.23    155.52    -30.84     24.00
   19.2224    152.73    153.48    -27.30     24.00
   19.2326    149.12    151.48    -28.90     24.00
   19.2428    148.21    149.53    -27.87     24.00
   19.2529    147.45    147.66    -26.75     24.00
   19.2631    145.54    145.83    -26.83     24.00
   19.2733    145.38    144.06    -25.22     24.00
   19.2834    145.09    142.36    -23.82     24.00
   19.2936    142.24    140.71    -25.02     24.00
   19.3038    139.46    139.13    -26.21     24.00
   19.3139    140.45    137.62    -23.71     24.00
   19.3241    140.87    136.16    -21.83     24.00
   19.3342    138.20    134.77    -23.12     24.00
   19.3444    135.55    133.43    -24.43     24.00
   19.3546    136.91    132.16    -21.79     24.00
   19.3647    136.28    130.96    -21.22     24.00
   19.3749    135.46    129.80    -20.89     24.00
   19.3851    135.93    128.71    -19.33     24.00
   19.3952    132.53    127.69    -21.70     24.00
   19.4054    135.77    126.71    -17.49     24.00
   19.4156    131.94    125.80    -20.40     24.00
   19.4257    131.68    124.94    -19.81     24.00
   19.4359    132.66    124.14    -18.02     24.00
   19.4461    130.16    123.39    -19.77     24.00
   19.4562    128.70    122.70    -20.54     24.00
   19.4664    130.10    122.05    -18.50     24.00
   19.4765    129.03    121.46    -18.98     24.00
   19.4867    126.95    120.92    -20.51     24.00
   19.4969    129.01    120.42    -17.95     24.00
   19.5070    128.11    119.97    -18.41     24.00
   19.5172    126.24    119.56    -19.87     24.00
   19.5274    127.80    119.20    -17.95     24.00
   19.5375    126.30    118.88    -19.13     24.00
   19.5477    126.05    118.60    -19.10     24.00
   19.5579    128.18    118.36    -16.73     24.00
   19.5680    125.84    118.16    -18.87     24.00
   19.5782    125.20    117.99    -19.34     24.00
   19.5884    125.04    117.86    -19.37     24.00
   19.5985    125.07    117.76    -19.24     24.00
   19.6087    124.62    117.70    -19.62     24.00
   19.6188    124.25    117.66    -19.96     24.00
   19.6290    123.11    117.66    -21.09     24.00
   19.6392    121.75    117.68    -22.47     24.00
   19.6493    123.62    117.72    -20.65     24.00
   19.6595    123.84    117.80    -20.50     24.00
   19.6697    122.63    117.89    -21.81     24.00
   19.6798    123.78    118.01    -20.78     24.00
   19.6900    123.57    118.15    -21.13     24.00
   19.7002    122.70    118.31    -22.16     24.00
   19.7103    122.62    118.49    -22.42     24.00
   19.7205    120.87    118.69    -24.37     24.00
   19.7307    122.79    118.91    -22.66     24.00
   19.7408    121.35    119.14    -24.33     24.00
   19.7510    121.20    119.39    -24.73     24.00
   19.7612    121.15    119.65    -25.04     24.00
   19.7713    121.82    119.92    -24.64     24.00
   19.7815    122.11    120.20    -24.64     24.00
   19.7916    121.83    120.50    -25.21     24.00
   19.8018    120.48    120.81    -26.87     24.00
   19.8120    121.90    121.12    -25.77     24.00
   19.8221    121.38    121.45    -26.61     24.00
   19.8323    121.83    121.78    -26.50     24.00
   19.8425    122.03    122.12    -26.64     24.00
   19.8526    120.23    122.47    -28.78     24.00
   19.8628    120.60    122.82    -28.77     24.00
   19.8730    122.33    123.18    -27.40     24.00
   19.8831    120.13    123.54    -29.96     24.00
   19.8933    122.29    123.91    -28.16     24.00
   19.9035    120.10    124.28    -30.72     24.00
   19.9136    119.10    124.65    -32.09     24.00
   19.9238    122.48    125.02    -29.09     24.00
   19.9339    121.30    125.40    -30.64     24.00
   19.9441    122.37    125.78    -29.95     24.00
   19.9543    121.45    126.15    -31.25     24.00
   19.9644    122.35    126.53    -30.73     24.00
   19.9746    120.93    126.91    -32.52     24.00
   19.9848    121.38    127.29    -32.45     24.00
   19.9949    123.24    127.66    -30.97     24.00
   20.0051    122.49    128.03    -32.09     24.00
   20.0153    122.13    128.41    -32.82     24.00
   20.0254    122.98    128.77    -32.34     24.00
   20.0356    123.73    129.14    -31.96     24.00
   20.0458    123.51    129.51    -32.54     24.00
   20.0559    123.84    129.86    -32.57     24.00
   20.0661    123.23    130.22    -33.54     24.00
   20.0763    125.08    130.57    -32.04     24.00
   20.0864    123.84    130.92    -33.62     24.00
   20.0966    124.31    131.26    -33.50     24.00
   20.1067    125.95    131.60    -32.19     24.00
   20.1169    127.44    131.93    -31.04     24.00
   20.1271    125.60    132.26    -33.20     24.00
   20.1372    127.70    132.57    -31.42     24.00
   20.1474    125.31    132.89    -34.12     24.00
   20.1576    126.93    133.19    -32.81     24.00
   20.1677    127.48    133.49    -32.56     24.00
   20.1779    126.52    133.79    -33.81     24.00
   20.1881    125.91    134.07    -34.71     24.00
   20.1982    127.25    134.35    -33.64     24.00
   20.2084    128.56    134.62    -32.60     24.00
   20.2186    128.29    134.88    -33.14     24.00
   20.2287    129.52    135.13    -32.16     24.00
   20.2389    128.39    135.38    -33.53     24.00
   20.2490    128.66    135.61    -33.50     24.00
   20.2592    129.63    135.84    -32.75     24.00
   20.2694    131.69    136.06    -30.91     24.00
   20.2795    129.80    136.26    -33.01     24.00
   20.2897    132.46    136.46    -30.55     24.00
   20.2999    131.44    136.65    -31.76     24.00
   20.3100    132.35    136.83    -31.03     24.00
   20.3202    132.74    137.00    -30.81     24.00
   20.3304    134.18    137.16    -29.53     24.00
   20.3405    133.52    137.31    -30.34     24.00
   20.3507    135.44    137.45    -28.55     24.00
   20.3609    134.66    137.58    -29.46     24.00
   20.3710    134.56    137.70    -29.68     24.00
   20.3812    135.05    137.80    -29.30     24.00
   20.3914    137.85    137.90    -26.60     24.00
   20.4015    136.38    137.98    -28.15     24.00
   20.4117    138.81    138.06    -25.80     24.00
   20.4218    138.01    138.12    -26.66     24.00
   20.4320    136.68    138.18    -28.04     24.00
   20.4422    138.75    138.22    -26.01     24.00
   20.4523    138.81    138.25    -25.98     24.00
   20.4625    138.96    138.27    -25.85     24.00
   20.4727    137.91    138.27    -26.91     24.00
   20.4828    138.45    138.27    -26.37     24.00
   20.4930    139.99    138.26    -24.81     24.00
   20.5032    141.92    138.23    -22.86     24.00
   20.5133    141.43    138.19    -23.31     24.00
   20.5235    139.29    138.14    -25.40     24.00
   20.5337    141.81    138.08    -22.82     24.00
   20.5438    144.23    138.01    -20.33     24.00
   20.5540    140.87    137.93    -23.61     24.00
   20.5641    141.98    137.84    -22.40     24.00
   20.5743    141.05    137.73    -23.23     24.00
   20.5845    142.90    137.61    -21.26     24.00
   20.5946    142.93    137.49    -21.10     24.00
   20.6048    143.37    137.35    -20.53     24.00
   20.6150    143.47    137.20    -20.28     24.00
   20.6251    142.91    137.04    -20.68     24.00
   20.6353    145.88    136.87    -17.54     24.00
   20.6455    141.74    136.69    -21.50     24.00
   20.6556    143.39    136.50    -19.66     24.00
   20.6658    142.73    136.30    -20.12     24.00
   20.6760    141.88    136.09    -20.75     24.00
   20.6861    144.66    135.87    -17.75     24.00
   20.6963    141.52    135.63    -20.66     24.00
   20.7065    139.95    135.39    -21.99     24.00
   20.7166    142.08    135.14    -19.61     24.00
   20.7268    141.92    134.88    -19.51     24.00
   20.7369    141.17    134.62    -19.99     24.00
   20.7471    140.12    134.34    -20.76     24.00
   20.7573    141.90    134.05    -18.69     24.00
   20.7674    138.21    133.76    -22.09     24.00
   20.7776    139.66    133.45    -20.34     24.00
   20.7878    138.29    133.14    -21.39     24.00
   20.7979    138.26    132.82    -21.11     24.00
   20.8081    138.03    132.49    -21.01     24.00
   20.8183    139.74    132.15    -18.96     24.00
   20.8284    136.05    131.81    -22.31     24.00
   20.8386    137.85    131.46    -20.16     24.00
   20.8488    136.39    131.11    -21.26     24.00
   20.8589    135.55    130.75    -21.74     24.00
   20.8691    133.71    130.38    -23.21     24.00
   20.8792    135.09    130.00    -21.46     24.00
   20.8894    132.79    129.62    -23.38     24.00
   20.8996    133.49    129.24    -22.29     24.00
   20.9097    131.47    128.85    -23.92     24.00
   20.9199    130.22    128.45    -24.78     24.00
   20.9301    131.18    128.05    -23.42     24.00
   20.9402    129.86    127.65    -24.33     24.00
   20.9504    128.45    127.24    -25.34     24.00
   20.9606    128.60    126.83    -24.77     24.00
   20.9707    128.24    126.42    -24.72     24.00
   20.9809    127.53    126.00    -25.01     24.00
   20.9911    127.55    125.58    -24.57     24.00
   21.0012    127.60    125.16    -24.10     24.00
   21.0114    123.86    124.73    -27.42     24.00
   21.0216    125.27    124.31    -25.58     24.00
   21.0317    125.15    123.88    -25.28     24.00
   21.0419    122.88    123.46    -27.12     24.00
   21.0520    123.05    123.03    -26.53     24.00
   21.0622    122.55    122.60    -26.60     24.00
   21.0724    121.80    122.18    -26.92     24.00
   21.0825    120.53    121.75    -27.77     24.00
   21.0927    120.51    121.33    -27.37     24.00
   21.1029    118.27    120.91    -29.18     24.00
   21.1130    118.57    120.49    -28.46     24.00
   21.1232    119.68    120.07    -26.93     24.00
   21.1334    117.73    119.65    -28.47     24.00
   21.1435    117.32    119.24    -28.47     24.00
   21.1537    119.56    118.83    -25.82     24.00
   21.1639    116.58    118.43    -28.39     24.00
   21.1740    118.32    118.03    -26.25     24.00
   21.1842    114.73    117.63    -29.45     24.00
   21.1943    115.18    117.24    -28.61     24.00
   21.2045    114.69    116.86    -28.72     24.00
   21.2147    113.87    116.48    -29.16     24.00
   21.2248    114.59    116.11    -28.07     24.00
   21.2350    112.92    115.74    -29.37     24.00
   21.2452    112.21    115.39    -29.72     24.00
   21.2553    111.26    115.04    -30.32     24.00
   21.2655    113.30    114.70    -27.94     24.00
   21.2757    111.03    114.36    -29.88     24.00
   21.2858    111.13    114.04    -29.46     24.00
   21.2960    111.35    113.72    -28.92     24.00
   21.3062    112.49    113.42    -27.47     24.00
   21.3163    110.02    113.12    -29.65     24.00
   21.3265    111.57    112.84    -27.82     24.00
   21.3366    111.16    112.57    -27.96     24.00
   21.3468    110.00    112.31    -28.85     24.00
   21.3570    110.71    112.06    -27.89     24.00
   21.3671    111.13    111.82    -27.24     24.00
   21.3773    108.66    111.60    -29.48     24.00
   21.3875    109.32    111.38    -28.61     24.00
   21.3976    109.70    111.19    -28.03     24.00
   21.4078    108.38    111.00    -29.17     24.00
   21.4180    108.01    110.83    -29.37     24.00
   21.4281    108.74    110.68    -28.49     24.00
   21.4383    108.36    110.54    -28.73     24.00
   21.4485    109.12    110.41    -27.84     24.00
   21.4586    108.87    110.31    -27.98     24.00
   21.4688    107.73    110.21    -29.03     24.00
   21.4790    109.02    110.14    -27.66     24.00
   21.4891    108.65    110.08    -27.98     24.00
   21.4993    108.02    110.04    -28.56     24.00
   21.5094    107.66    110.01    -28.90     24.00
   21.5196    109.92    110.01    -26.63     24.00
   21.5298    107.02    110.02    -29.54     24.00
   21.5399    108.95    110.05    -27.64     24.00
   21.5501    107.45    110.09    -29.19     24.00
   21.5603    108.20    110.16    -28.51     24.00
   21.5704    108.57    110.25    -28.22     24.00
   21.5806    108.81    110.35    -28.09     24.00
   21.5908    107.53    110.48    -29.49     24.00
   21.6009    109.61    110.62    -27.56     24.00
   21.6111    109.70    110.78    -27.63     24.00
   21.6213    108.62    110.97    -28.90     24.00
   21.6314    111.02    111.17    -26.70     24.00
   21.6416    109.93    111.40    -28.01     24.00
   21.6517    109.76    111.64    -28.43     24.00
   21.6619    111.65    111.91    -26.80     24.00
   21.6721    111.77    112.19    -26.97     24.00
   21.6822    112.92    112.50    -26.12     24.00
   21.6924    110.55    112.83    -28.82     24.00
   21.7026    111.58    113.17    -28.14     24.00
   21.7127    111.13    113.54    -28.96     24.00
   21.7229    112.95    113.93    -27.53     24.00
   21.7331    112.40    114.34    -28.49     24.00
   21.7432    112.62    114.77    -28.69     24.00
   21.7534    115.59    115.22    -26.17     24.00
   21.7636    114.68    115.69    -27.55     24.00
   21.7737    114.77    116.17    -27.95     24.00
   21.7839    113.82    116.68    -29.41     24.00
   21.7941    116.76    117.21    -27.00     24.00
   21.8042    114.77    117.76    -29.53     24.00
   21.8144    116.55    118.33    -28.32     24.00
   21.8245    119.32    118.91    -26.13     24.00
   21.8347    118.15    119.51    -27.91     24.00
   21.8449    119.43    120.14    -27.25     24.00
   21.8550    120.32    120.77    -27.00     24.00
   21.8652    120.45    121.43    -27.52     24.00
   21.8754    121.97    122.10    -26.68     24.00
   21.8855    123.05    122.78    -26.28     24.00
   21.8957    121.03    123.49    -29.01     24.00
   21.9059    123.65    124.21    -27.11     24.00
   21.9160    124.95    124.94    -26.53     24.00
   21.9262    122.93    125.69    -29.30     24.00
   21.9364    125.87    126.45    -27.13     24.00
   21.9465    125.91    127.22    -27.85     24.00
   21.9567    125.62    128.00    -28.93     24.00
   21.9668    127.79    128.79    -27.55     24.00
   21.9770    128.89    129.60    -27.26     24.00
   21.9872    129.70    130.42    -27.27     24.00
   21.9973    129.22    131.24    -28.57     24.00
   22.0075    131.57    132.07    -27.05     24.00
   22.0177    132.11    132.92    -27.35     24.00
   22.0278    131.55    133.76    -28.75     24.00
   22.0380    134.21    134.61    -26.95     24.00
   22.0482    133.66    135.47    -28.36     24.00
   22.0583    136.04    136.33    -26.83     24.00
   22.0685    137.98    137.19    -25.76     24.00
   22.0787    134.93    138.06    -29.68     24.00
   22.0888    137.64    138.92    -27.83     24.00
   22.0990    140.15    139.79    -26.19     24.00
   22.1092    138.26    140.66    -28.94     24.00
   22.1193    141.15    141.52    -26.91     24.00
   22.1295    143.61    142.38    -25.31     24.00
   22.1396    142.77    143.23    -27.00     24.00
   22.1498    144.09    144.08    -26.54     24.00
   22.1600    145.30    144.93    -26.18     24.00
   22.1701    146.63    145.76    -25.68     24.00
   22.1803    147.18    146.59    -25.96     24.00
   22.1905    149.40    147.42    -24.56     24.00
   22.2006    148.58    148.22    -26.19     24.00
   22.2108    150.59    149.02    -24.98     24.00
   22.2210    151.31    149.81    -25.05     24.00
   22.2311    152.07    150.58    -25.06     24.00
   22.2413    154.62    151.34    -23.27     24.00
   22.2515    152.99    152.09    -25.64     24.00
   22.2616    154.74    152.81    -24.61     24.00
   22.2718    155.34    153.52    -24.73     24.00
   22.2819    155.99    154.21    -24.76     24.00
   22.2921    157.27    154.88    -24.16     24.00
   22.3023    159.39    155.53    -22.69     24.00
   22.3124    160.67    156.16    -22.03     24.00
   22.3226    160.41    156.77    -22.90     24.00
   22.3328    161.66    157.36    -22.24     24.00
   22.3429    161.96    157.91    -22.50     24.00
   22.3531    161.70    158.45    -23.30     24.00
   22.3633    165.29    158.96    -20.22     24.00
   22.3734    164.57    159.44    -21.42     24.00
   22.3836    162.15    159.90    -24.30     24.00
   22.3938    165.88    160.33    -21.00     24.00
   22.4039    164.37    160.73    -22.91     24.00
   22.4141    164.54    161.11    -23.11     24.00
   22.4243    166.95    161.45    -21.05     24.00
   22.4344    165.58    161.76    -22.73     24.00
   22.4446    165.31    162.04    -23.28     24.00
   22.4547    167.65    162.29    -21.19     24.00
   22.4649    168.18    162.51    -20.87     24.00
   22.4751    167.10    162.70    -22.14     24.00
   22.4852    168.85    162.85    -20.54     24.00
   22.4954    168.16    162.97    -21.35     24.00
   22.5056    165.72    163.05    -23.88     24.00
   22.5157    166.80    163.11    -22.85     24.00
   22.5259    166.76    163.13    -22.91     24.00
   22.5361    166.27    163.11    -23.39     24.00
   22.5462    166.61    163.06    -23.00     24.00
   22.5564    165.86    162.98    -23.67     24.00
   22.5666    165.70    162.86    -23.71     24.00
   22.5767    165.10    162.71    -24.16     24.00
   22.5869    165.79    162.53    -23.28     24.00
   22.5970    164.77    162.31    -24.08     24.00
   22.6072    165.73    162.05    -22.87     24.00
   22.6174    164.21    161.77    -24.10     24.00
   22.6275    160.04    161.45    -27.95     24.00
   22.6377    162.68    161.09    -24.96     24.00
   22.6479    162.16    160.70    -25.09     24.00
   22.6580    157.00    160.29    -29.83     24.00
   22.6682    159.38    159.83    -27.00     24.00
   22.6784    160.71    159.35    -25.18     24.00
   22.6885    158.01    158.84    -27.37     24.00
   22.6987    157.64    158.29    -27.20     24.00
   22.7089    158.26    157.71    -26.00     24.00
   22.7190    154.61    157.11    -29.04     24.00
   22.7292    155.97    156.47    -27.05     24.00
   22.7394    153.21    155.81    -29.14     24.00
   22.7495    152.28    155.12    -29.38     24.00
   22.7597    153.38    154.40    -27.56     24.00
   22.7698    150.95    153.66    -29.25     24.00
   22.7800    149.43    152.88    -30.00     24.00
   22.7902    150.22    152.09    -28.41     24.00
   22.8003    147.21    151.27    -30.61     24.00
   22.8105    147.10    150.43    -29.87     24.00
   22.8207    145.58    149.56    -30.52     24.00
   22.8308    145.50    148.68    -29.72     24.00
   22.8410    144.42    147.77    -29.89     24.00
   22.8512    143.12    146.84    -30.26     24.00
   22.8613    143.00    145.90    -29.44     24.00
   22.8715    139.74    144.93    -31.73     24.00
   22.8817    140.04    143.94    -30.45     24.00
   22.8918    138.21    142.95    -31.29     24.00
   22.9020    136.76    141.94    -31.72     24.00
   22.9121    134.75    140.92    -32.71     24.00
   22.9223    134.79    139.88    -31.63     24.00
   22.9325    134.43    138.82    -30.94     24.00
   22.9426    133.70    137.77    -30.61     24.00
   22.9528    133.60    136.69    -29.64     24.00
   22.9630    131.48    135.60    -30.67     24.00
   22.9731    130.63    134.52    -30.44     24.00
   22.9833    128.86    133.42    -31.11     24.00
   22.9935    128.37    132.31    -30.49     24.00
   23.0036    127.48    131.21    -30.28     24.00
   23.0138    126.45    130.09    -30.19     24.00
   23.0240    124.95    128.97    -30.57     24.00
   23.0341    124.84    127.86    -29.56     24.00
   23.0443    123.43    126.73    -29.85     24.00
   23.0545    120.38    125.61    -31.77     24.00
   23.0646    118.48    124.49    -32.56     24.00
   23.0748    120.26    123.37    -29.65     24.00
   23.0849    118.26    122.25    -30.54     24.00
   23.0951    118.82    121.13    -28.86     24.00
   23.1053    117.21    120.01    -29.35     24.00
   23.1154    116.36    118.91    -29.09     24.00
   23.1256    115.26    117.80    -29.08     24.00
   23.1358    114.45    116.69    -28.79     24.00
   23.1459    111.09    115.61    -31.06     24.00
   23.1561    113.43    114.52    -27.63     24.00
   23.1663    112.12    113.43    -27.86     24.00
   23.1764    110.63    112.37    -28.28     24.00
   23.1866    109.24    111.30    -28.61     24.00
   23.1968    110.14    110.24    -26.65     24.00
   23.2069    108.06    109.21    -27.69     24.00
   23.2171    107.53    108.17    -27.19     24.00
   23.2272    105.58    107.15    -28.12     24.00
   23.2374    106.06    106.14    -26.63     24.00
   23.2476    105.22    105.14    -26.46     24.00
   23.2577    105.48    104.16    -25.22     24.00
   23.2679    103.52    103.18    -26.20     24.00
   23.2781    103.68    102.21    -25.08     24.00
   23.2882    101.80    101.27    -26.02     24.00
   23.2984    101.52    100.33    -25.36     24.00
   23.3086    101.52     99.41    -24.44     24.00
   23.3187    100.26     98.51    -24.79     24.00
   23.3289     99.48     97.61    -24.68     24.00
   23.3391     97.65     96.73    -25.63     24.00
   23.3492     97.57     95.88    -24.85     24.00
   23.3594     97.30     95.03    -24.27     24.00
   23.3695     96.94     94.20    -23.81     24.00
   23.3797     95.73     93.38    -24.20     24.00
   23.3899     95.29     92.58    -23.83     24.00
   23.4000     95.63     91.79    -22.71     24.00
   23.4102     94.84     91.02    -22.73     24.00
   23.4204     92.70     90.26    -24.11     24.00
   23.4305     92.03     89.53    -24.04     24.00
   23.4407     92.40     88.80    -22.95     24.00
   23.4509     91.76     88.09    -22.88     24.00
   23.4610     89.73     87.40    -24.22     24.00
   23.4712     89.80     86.72    -23.47     24.00
   23.4814     88.84     86.06    -23.76     24.00
   23.4915     88.07     85.41    -23.89     24.00
   23.5017     87.64     84.78    -23.69     24.00
   23.5119     88.37     84.16    -22.34     24.00
   23.5220     86.87     83.56    -23.24     24.00
   23.5322     87.07     82.97    -22.45     24.00
   23.5423     85.73     82.40    -23.22     24.00
   23.5525     84.83     81.84    -23.56     24.00
   23.5627     86.21     81.30    -21.63     24.00
   23.5728     83.85     80.77    -23.47     24.00
   23.5830     83.65     80.25    -23.15     24.00
   23.5932     83.86     79.75    -22.44     24.00
   23.6033     81.84     79.26    -23.97     24.00
   23.6135     83.49     78.79    -21.84     24.00
   23.6237     82.34     78.32    -22.53     24.00
   23.6338     81.30     77.87    -23.12     24.00
   23.6440     81.58     77.44    -22.40     24.00
   23.6542     80.73     77.01    -22.82     24.00
   23.6643     79.93     76.60    -23.21     24.00
   23.6745     80.52     76.19    -22.22     24.00
   23.6846     79.64     75.81    -22.71     24.00
   23.6948     77.52     75.43    -24.45     24.00
   23.7050     78.87     75.06    -22.73     24.00
   23.7151     78.72     74.70    -22.53     24.00
   23.7253     77.88     74.35    -23.02     24.00
   23.7355     77.35     74.01    -23.21     24.00
   23.7456     76.46     73.69    -23.77     24.00
   23.7558     76.88     73.37    -23.04     24.00
   23.7660     75.28     73.06    -24.33     24.00
   23.7761     76.46     72.76    -22.85     24.00
   23.7863     74.95     72.47    -24.07     24.00
   23.7965     75.65     72.19    -23.09     24.00
   23.8066     74.12     71.92    -24.34     24.00
   23.8168     74.74     71.65    -23.46     24.00
   23.8270     74.65     71.39    -23.29     24.00
   23.8371     72.68     71.14    -25.01     24.00
   23.8473     73.66     70.90    -23.79     24.00
   23.8574     74.59     70.67    -22.62     24.00
   23.8676     73.09     70.44    -23.89     24.00
   23.8778     72.48     70.21    -24.28     24.00
   23.8879     71.75     70.00    -24.80     24.00
   23.8981     71.52     69.79    -24.82     24.00
   23.9083     73.04     69.58    -23.09     24.00
   23.9184     70.55     69.39    -25.38     24.00
   23.9286     71.27     69.19    -24.47     24.00
   23.9388     71.84     69.01    -23.71     24.00
   23.9489     70.58     68.83    -24.79     24.00
   23.9591     71.04     68.65    -24.15     24.00
   23.9693     69.40     68.47    -25.62     24.00
   23.9794     70.84     68.31    -24.01     24.00
   23.9896     70.18     68.14    -24.51     24.00
   23.9997     69.37     67.98    -25.16     24.00
   24.0099     68.68     67.83    -25.69     24.00
   24.0201     68.11     67.68    -26.11     24.00
   24.0302     68.95     67.53    -25.12     24.00
   24.0404     67.29     67.38    -26.64     24.00
   24.0506     67.87     67.24    -25.92     24.00
   24.0607     67.23     67.10    -26.42     24.00
   24.0709     68.45     66.97    -25.06     24.00
   24.0811     67.96     66.84    -25.42     24.00
   24.0912     66.30     66.71    -26.95     24.00
   24.1014     67.23     66.58    -25.90     24.00
   24.1116     67.16     66.46    -25.84     24.00
   24.1217     65.06     66.33    -27.82     24.00
   24.1319     66.78     66.21    -25.98     24.00
   24.1421     65.67     66.10    -26.97     24.00
   24.1522     64.66     65.98    -27.87     24.00
   24.1624     64.82     65.87    -27.59     24.00
   24.1725     66.37     65.76    -25.93     24.00
   24.1827     64.34     65.65    -27.85     24.00
   24.1929     65.01     65.54    -27.07     24.00
   24.2030     65.30     65.43    -26.68     24.00
   24.2132     64.82     65.33    -27.05     24.00
   24.2234     64.62     65.22    -27.15     24.00
   24.2335     64.38     65.12    -27.29     24.00
   24.2437     63.76     65.02    -27.81     24.00
   24.2539     65.41     64.92    -26.06     24.00
   24.2640     63.99     64.82    -27.38     24.00
   24.2742     64.39     64.73    -26.88     24.00
   24.2844     63.10     64.63    -28.07     24.00
   24.2945     62.99     64.53    -28.09     24.00
   24.3047     62.66     64.44    -28.32     24.00
   24.3148     63.30     64.35    -27.59     24.00
   24.3250     63.27     64.25    -27.53     24.00
   24.3352     62.35     64.16    -28.36     24.00
   24.3453     63.52     64.07    -27.10     24.00
   24.3555     62.17     63.98    -28.35     24.00
   24.3657     62.71     63.89    -27.72     24.00
   24.3758     61.70     63.80    -28.65     24.00
   24.3860     62.61     63.71    -27.65     24.00
   24.3962     62.45     63.62    -27.72     24.00
   24.4063     61.95     63.53    -28.13     24.00
   24.4165     60.41     63.45    -29.58     24.00
   24.4267     60.82     63.36    -29.09     24.00
   24.4368     61.91     63.27    -27.91     24.00
   24.4470     60.82     63.19    -28.91     24.00
   24.4572     60.52     63.10    -29.13     24.00
   24.4673     61.72     63.02    -27.84     24.00
   24.4775     60.99     62.93    -28.49     24.00
   24.4876     62.17     62.85    -27.22     24.00
   24.4978     61.18     62.76    -28.13     24.00
   24.5080     60.79     62.68    -28.43     24.00
   24.5181     60.87     62.59    -28.27     24.00
   24.5283     59.51     62.51    -29.54     24.00
   24.5385     59.23     62.42    -29.74     24.00
   24.5486     59.77     62.34    -29.12     24.00
   24.5588     60.26     62.26    -28.54     24.00
   24.5690     59.41     62.17    -29.31     24.00
   24.5791     60.78     62.09    -27.86     24.00
   24.5893     59.10     62.01    -29.45     24.00
   24.5995     58.72     61.93    -29.75     24.00
   24.6096     58.80     61.84    -29.59     24.00
   24.6198     58.73     61.76    -29.58     24.00
   24.6299     59.30     61.68    -28.93     24.00
   24.6401     59.15     61.60    -28.99     24.00
   24.6503     58.74     61.51    -29.32     24.00
   24.6604     58.07     61.43    -29.91     24.00
   24.6706     58.56     61.35    -29.34     24.00
   24.6808     58.26     61.27    -29.55     24.00
   24.6909     57.76     61.19    -29.97     24.00
   24.7011     57.84     61.11    -29.81     24.00
   24.7113     58.00     61.02    -29.57     24.00
   24.7214     58.72     60.94    -28.77     24.00
   24.7316     58.77     60.86    -28.64     24.00
   24.7418     58.07     60.78    -29.25     24.00
   24.7519     57.15     60.70    -30.09     24.00
   24.7621     58.06     60.62    -29.10     24.00
   24.7723     58.59     60.53    -28.49     24.00
   24.7824     58.39     60.45    -28.61     24.00
   24.7926     58.71     60.37    -28.21     24.00
   24.8027     56.71     60.29    -30.13     24.00
   24.8129     57.52     60.21    -29.24     24.00
   24.8231     56.81     60.13    -29.86     24.00
   24.8332     57.24     60.05    -29.35     24.00
   24.8434     58.26     59.97    -28.25     24.00
   24.8536     56.95     59.88    -29.48     24.00
   24.8637     56.91     59.80    -29.44     24.00
   24.8739     56.48     59.72    -29.79     24.00
   24.8841     55.85     59.64    -30.34     24.00
   24.8942     57.05     59.56    -29.06     24.00
   24.9044     56.40     59.48    -29.63     24.00
   24.9146     56.07     59.40    -29.87     24.00
   24.9247     56.97     59.32    -28.89     24.00
   24.9349     56.67     59.24    -29.11     24.00
   24.9450     56.23     59.16    -29.47     24.00
   24.9552     55.54     59.08    -30.08     24.00
   24.9654     55.41     58.99    -30.13     24.00
   24.9755     56.21     58.91    -29.25     24.00
   24.9857     55.31     58.83    -30.07     24.00
   24.9959     55.90     58.75    -29.40     24.00
   25.0060     56.26     58.67    -28.96     24.00
   25.0162     55.70     58.59    -29.44     24.00
   25.0264     56.30     58.51    -28.76     24.00
   25.0365     56.90     58.43    -28.08     24.00
   25.0467     55.42     58.35    -29.48     24.00
   25.0569     55.59     58.27    -29.22     24.00
   25.0670     56.15     58.19    -28.58     24.00
   25.0772     54.82     58.11    -29.83     24.00
   25.0874     54.63     58.03    -29.94     24.00
   25.0975     56.06     57.95    -28.43     24.00
   25.1077     56.18     57.87    -28.23     24.00
   25.1178     55.29     57.79    -29.04     24.00
   25.1280     55.08     57.71    -29.17     24.00
   25.1382     55.68     57.63    -28.49     24.00
   25.1483     55.08     57.55    -29.01     24.00
   25.1585     55.95     57.47    -28.06     24.00
   25.1687     54.90     57.38    -29.03     24.00
   25.1788     54.46     57.30    -29.39     24.00
   25.1890     54.67     57.22    -29.10     24.00
   25.1992     54.12     57.14    -29.57     24.00
   25.2093     54.20     57.06    -29.41     24.00
   25.2195     54.96     56.98    -28.57     24.00
   25.2297     54.35     56.90    -29.10     24.00
   25.2398     54.27     56.82    -29.10     24.00
   25.2500     53.99     56.74    -29.30     24.00
   25.2601     54.64     56.67    -28.57     24.00
   25.2703     55.20     56.59    -27.93     24.00
   25.2805     54.24     56.50    -28.81     24.00
   25.2906     53.97     56.43    -29.00     24.00
   25.3008     54.55     56.35    -28.34     24.00
   25.3110     53.65     56.27    -29.16     24.00
   25.3211     53.48     56.19    -29.25     24.00
   25.3313     54.29     56.11    -28.36     24.00
   25.3415     54.34     56.03    -28.23     24.00
   25.3516     54.26     55.95    -28.23     24.00
   25.3618     54.45     55.87    -27.96     24.00
   25.3720     55.15     55.79    -27.18     24.00
   25.3821     53.03     55.71    -29.23     24.00
   25.3923     55.10     55.63    -27.08     24.00
   25.4024     52.35     55.55    -29.75     24.00
   25.4126     53.65     55.47    -28.37     24.00
   25.4228     53.59     55.39    -28.35     24.00
   25.4329     54.16     55.31    -27.70     24.00
   25.4431     53.32     55.24    -28.46     24.00
   25.4533     53.88     55.16    -27.82     24.00
   25.4634     53.01     55.08    -28.61     24.00
   25.4736     54.15     55.00    -27.39     24.00
   25.4838     53.34     54.92    -28.13     24.00
   25.4939     52.79     54.84    -28.60     24.00
   25.5041     53.41     54.76    -27.90     24.00
   25.5143     54.99     54.68    -26.24     24.00
   25.5244     53.34     54.61    -27.81     24.00
   25.5346     53.74     54.53    -27.33     24.00
   25.5448     53.50     54.45    -27.49     24.00
   25.5549     52.04     54.37    -28.88     24.00
   25.5651     53.77     54.29    -27.07     24.00
   25.5752     52.99     54.21    -27.77     24.00
   25.5854     53.48     54.13    -27.20     24.00
   25.5956     52.95     54.06    -27.65     24.00
   25.6057     53.26     53.98    -27.26     24.00
   25.6159     53.15     53.90    -27.30     24.00
   25.6261     52.51     53.82    -27.86     24.00
   25.6362     53.05     53.74    -27.24     24.00
   25.6464     52.91     53.67    -27.30     24.00
   25.6566     52.18     53.59    -27.95     24.00
   25.6667     53.98     53.51    -26.08     24.00
   25.6769     52.73     53.43    -27.25     24.00
   25.6871     52.27     53.36    -27.63     24.00
   25.6972     52.49     53.28    -27.33     24.00
   25.7074     52.62     53.20    -27.13     24.00
   25.7175     52.38     53.12    -27.29     24.00
   25.7277     52.11     53.05    -27.48     24.00
   25.7379     53.60     52.97    -25.92     24.00
   25.7480     52.71     52.89    -26.73     24.00
   25.7582     52.07     52.82    -27.29     24.00
   25.7684     52.85     52.74    -26.43     24.00
   25.7785     51.74     52.66    -27.47     24.00
   25.7887     51.18     52.58    -27.95     24.00
   25.7989     52.31     52.51    -26.74     24.00
   25.8090     52.40     52.43    -26.58     24.00
   25.8192     51.95     52.35    -26.95     24.00
   25.8294     52.60     52.28    -26.22     24.00
   25.8395     51.57     52.20    -27.18     24.00
   25.8497     51.82     52.13    -26.85     24.00
   25.8599     50.83     52.05    -27.77     24.00
   25.8700     51.16     51.97    -27.36     24.00
   25.8802     50.69     51.90    -27.75     24.00
   25.8903     50.66     51.82    -27.71     24.00
   25.9005     50.86     51.75    -27.43     24.00
   25.9107     51.37     51.67    -26.85     24.00
   25.9208     51.28     51.59    -26.86     24.00
   25.9310     51.26     51.52    -26.80     24.00
   25.9412     50.91     51.44    -27.08     24.00
   25.9513     51.48     51.37    -26.43     24.00
   25.9615     50.77     51.29    -27.07     24.00
   25.9717     50.14     51.22    -27.62     24.00
   25.9818     50.80     51.14    -26.89     24.00
   25.9920     50.77     51.07    -26.84     24.00
   26.0022     50.66     50.99    -26.88     24.00
   26.0123     50.58     50.92    -26.88     24.00
   26.0225     51.15     50.84    -26.24     24.00
   26.0326     51.13     50.77    -26.18     24.00
   26.0428     50.49     50.69    -26.75     24.00
   26.0530     50.65     50.62    -26.51     24.00
   26.0631     50.16     50.54    -26.93     24.00
   26.0733     49.82     50.47    -27.20     24.00
   26.0835     51.51     50.40    -25.43     24.00
   26.0936     50.49     50.32    -26.38     24.00
   26.1038     50.35     50.25    -26.44     24.00
   26.1140     49.34     50.17    -27.38     24.00
   26.1241     49.87     50.10    -26.78     24.00
   26.1343     49.24     50.03    -27.33     24.00
   26.1445     50.98     49.95    -25.52     24.00
   26.1546     50.18     49.88    -26.25     24.00
   26.1648     50.32     49.81    -26.03     24.00
   26.1750     49.96     49.73    -26.32     24.00
   26.1851     50.23     49.66    -25.98     24.00
   26.1953     50.13     49.59    -26.00     24.00
   26.2054     48.80     49.51    -27.26     24.00
   26.2156     49.57     49.44    -26.42     24.00
   26.2258     49.10     49.37    -26.82     24.00
   26.2359     50.02     49.30    -25.82     24.00
   26.2461     50.21     49.22    -25.56     24.00
   26.2563     49.86     49.15    -25.84     24.00
   26.2664     48.84     49.08    -26.79     24.00
   26.2766     49.45     49.01    -26.10     24.00
   26.2868     48.26     48.94    -27.22     24.00
   26.2969     49.70     48.87    -25.71     24.00
   26.3071     48.92     48.79    -26.42     24.00
   26.3173     48.30     48.72    -26.97     24.00
   26.3274     48.37     48.65    -26.83     24.00
   26.3376     47.93     48.58    -27.20     24.00
   26.3477     48.48     48.51    -26.58     24.00
   26.3579     49.51     48.44    -25.47     24.00
   26.3681     49.28     48.37    -25.63     24.00
   26.3782     48.38     48.30    -26.46     24.00
   26.3884     47.94     48.23    -26.83     24.00
   26.3986     48.13     48.16    -26.57     24.00
   26.4087     48.41     48.09    -26.22     24.00
   26.4189     48.09     48.02    -26.47     24.00
   26.4291     48.12     47.95    -26.37     24.00
   26.4392     47.55     47.88    -26.87     24.00
   26.4494     48.58     47.81    -25.77     24.00
   26.4596     47.32     47.74    -26.97     24.00
   26.4697     47.56     47.67    -26.66     24.00
   26.4799     48.55     47.60    -25.60     24.00
   26.4901     48.07     47.53    -26.01     24.00
   26.5002     48.02     47.47    -25.99     24.00
   26.5104     48.34     47.40    -25.60     24.00
   26.5205     48.43     47.33    -25.45     24.00
   26.5307     48.34     47.26    -25.47     24.00
   26.5409     48.38     47.19    -25.36     24.00
   26.5510     48.00     47.13    -25.67     24.00
   26.5612     47.95     47.06    -25.66     24.00
   26.5714     46.76     46.99    -26.78     24.00
   26.5815     47.29     46.93    -26.18     24.00
   26.5917     46.85     46.86    -26.56     24.00
   26.6019     48.42     46.79    -24.92     24.00
   26.6120     47.44     46.73    -25.84     24.00
   26.6222     47.10     46.66    -26.11     24.00
   26.6324     47.32     46.60    -25.82     24.00
   26.6425     46.09     46.53    -26.99     24.00
   26.6527     46.82     46.47    -26.20     24.00
   26.6628     48.28     46.41    -24.67     24.00
   26.6730     48.12     46.34    -24.77     24.00
   26.6832     46.87     46.28    -25.95     24.00
   26.6933     47.41     46.22    -25.35     24.00
   26.7035     47.82     46.15    -24.88     24.00
   26.7137     46.45     46.09    -26.19     24.00
   26.7238     47.66     46.03    -24.92     24.00
   26.7340     47.90     45.97    -24.61     24.00
   26.7442     47.69     45.91    -24.76     24.00
   26.7543     46.95     45.85    -25.44     24.00
   26.7645     47.58     45.79    -24.75     24.00
   26.7747     47.23     45.73    -25.04     24.00
   26.7848     45.34     45.67    -26.87     24.00
   26.7950     47.71     45.61    -24.44     24.00
   26.8052     46.88     45.55    -25.22     24.00
   26.8153     46.82     45.49    -25.22     24.00
   26.8255     47.35     45.44    -24.63     24.00
   26.8356     46.78     45.38    -25.15     24.00
   26.8458     46.48     45.32    -25.39     24.00
   26.8560     46.21     45.27    -25.61     24.00
   26.8661     47.29     45.22    -24.47     24.00
   26.8763     47.01     45.16    -24.70     24.00
   26.8865     46.92     45.11    -24.73     24.00
   26.8966     46.16     45.06    -25.44     24.00
   26.9068     46.14     45.01    -25.41     24.00
   26.9170     47.38     44.96    -24.12     24.00
   26.9271     47.98     44.91    -23.47     24.00
   26.9373     45.96     44.86    -25.44     24.00
   26.9475     46.36     44.81    -25.00     24.00
   26.9576     46.84     44.76    -24.47     24.00
   26.9678     45.71     44.72    -25.55     24.00
   26.9779     46.91     44.67    -24.31     24.00
   26.9881     45.60     44.63    -25.58     24.00
   26.9983     47.70     44.59    -23.43     24.00
   27.0084     46.94     44.55    -24.15     24.00
   27.0186     45.96     44.51    -25.09     24.00
   27.0288     47.02     44.47    -23.99     24.00
   27.0389     47.44     44.43    -23.54     24.00
   27.0491     46.59     44.39    -24.35     24.00
   27.0593     45.90     44.36    -25.01     24.00
   27.0694     46.73     44.33    -24.14     24.00
   27.0796     45.23     44.30    -25.61     24.00
   27.0898     46.95     44.27    -23.86     24.00
   27.0999     45.94     44.24    -24.84     24.00
   27.1101     46.61     44.21    -24.15     24.00
   27.1202     46.77     44.19    -23.96     24.00
   27.1304     45.41     44.16    -25.30     24.00
   27.1406     45.81     44.14    -24.88     24.00
   27.1507     46.91     44.12    -23.76     24.00
   27.1609     46.48     44.11    -24.17     24.00
   27.1711     46.74     44.09    -23.90     24.00
   27.1812     46.19     44.08    -24.44     24.00
   27.1914     46.32     44.07    -24.30     24.00
   27.2016     46.04     44.06    -24.57     24.00
   27.2117     46.32     44.06    -24.28     24.00
   27.2219     45.69     44.05    -24.91     24.00
   27.2321     45.42     44.05    -25.18     24.00
   27.2422     46.85     44.06    -23.75     24.00
   27.2524     47.41     44.06    -23.20     24.00
   27.2626     45.97     44.07    -24.65     24.00
   27.2727     45.38     44.08    -25.25     24.00
   27.2829     47.15     44.09    -23.49     24.00
   27.2930     45.79     44.11    -24.87     24.00
   27.3032     46.45     44.13    -24.23     24.00
   27.3134     45.60     44.15    -25.10     24.00
   27.3235     45.98     44.18    -24.75     24.00
   27.3337     45.01     44.21    -25.75     24.00
   27.3439     46.26     44.25    -24.53     24.00
   27.3540     46.43     44.28    -24.40     24.00
   27.3642     45.78     44.32    -25.09     24.00
   27.3744     46.84     44.37    -24.07     24.00
   27.3845     46.84     44.42    -24.12     24.00
   27.3947     45.86     44.47    -25.16     24.00
   27.4049     47.04     44.53    -24.03     24.00
   27.4150     47.27     44.59    -23.86     24.00
   27.4252     46.61     44.65    -24.59     24.00
   27.4353     46.74     44.72    -24.53     24.00
   27.4455     46.59     44.80    -24.75     24.00
   27.4557     46.12     44.88    -25.30     24.00
   27.4658     46.66     44.96    -24.84     24.00
   27.4760     46.48     45.05    -25.11     24.00
   27.4862     47.62     45.14    -24.06     24.00
   27.4963     46.65     45.24    -25.13     24.00
   27.5065     46.01     45.34    -25.87     24.00
   27.5167     46.68     45.45    -25.31     24.00
   27.5268     47.27     45.56    -24.83     24.00
   27.5370     46.45     45.68    -25.77     24.00
   27.5472     47.42     45.80    -24.93     24.00
   27.5573     48.22     45.93    -24.25     24.00
   27.5675     47.23     46.06    -25.38     24.00
   27.5777     48.11     46.20    -24.64     24.00
   27.5878     48.36     46.34    -24.53     24.00
   27.5980     47.75     46.50    -25.29     24.00
   27.6081     48.19     46.65    -25.01     24.00
   27.6183     47.09     46.81    -26.27     24.00
   27.6285     48.29     46.98    -25.24     24.00
   27.6386     48.30     47.15    -25.40     24.00
   27.6488     47.90     47.33    -25.98     24.00
   27.6590     47.59     47.51    -26.47     24.00
   27.6691     48.41     47.70    -25.84     24.00
   27.6793     49.10     47.90    -25.35     24.00
   27.6895     47.63     48.10    -27.02     24.00
   27.6996     47.56     48.31    -27.29     24.00
   27.7098     48.68     48.52    -26.39     24.00
   27.7200     48.12     48.74    -27.17     24.00
   27.7301     48.12     48.96    -27.39     24.00
   27.7403     48.72     49.19    -27.02     24.00
   27.7504     48.98     49.43    -26.99     24.00
   27.7606     49.33     49.67    -26.89     24.00
   27.7708     50.04     49.92    -26.42     24.00
   27.7809     49.37     50.17    -27.34     24.00
   27.7911     50.47     50.43    -26.50     24.00
   27.8013     49.99     50.69    -27.25     24.00
   27.8114     50.43     50.96    -27.07     24.00
   27.8216     50.08     51.23    -27.70     24.00
   27.8318     50.23     51.51    -27.83     24.00
   27.8419     51.70     51.79    -26.64     24.00
   27.8521     51.24     52.08    -27.39     24.00
   27.8623     51.05     52.38    -27.87     24.00
   27.8724     51.09     52.67    -28.13     24.00
   27.8826     50.84     52.98    -28.68     24.00
   27.8928     52.32     53.29    -27.51     24.00
   27.9029     51.00     53.59    -29.14     24.00
   27.9131     51.51     53.91    -28.95     24.00
   27.9232     52.14     54.23    -28.63     24.00
   27.9334     53.40     54.55    -27.70     24.00
   27.9436     53.63     54.88    -27.79     24.00
   27.9537     53.63     55.20    -28.12     24.00
   27.9639     54.16     55.54    -27.92     24.00
   27.9741     53.49     55.87    -28.93     24.00
   27.9842     53.95     56.21    -28.80     24.00
   27.9944     54.35     56.55    -28.74     24.00
   28.0046     55.40     56.89    -28.04     24.00
   28.0147     55.48     57.23    -28.30     24.00
   28.0249     56.76     57.58    -27.36     24.00
   28.0351     56.01     57.93    -28.46     24.00
   28.0452     55.48     58.27    -29.34     24.00
   28.0554     57.51     58.62    -27.66     24.00
   28.0655     55.85     58.97    -29.66     24.00
   28.0757     56.85     59.32    -29.01     24.00
   28.0859     57.90     59.67    -28.31     24.00
   28.0960     58.77     60.01    -27.79     24.00
   28.1062     57.71     60.36    -29.20     24.00
   28.1164     59.45     60.71    -27.80     24.00
   28.1265     59.40     61.05    -28.20     24.00
   28.1367     58.49     61.40    -29.45     24.00
   28.1469     59.99     61.74    -28.29     24.00
   28.1570     59.57     62.07    -29.05     24.00
   28.1672     60.30     62.41    -28.66     24.00
   28.1774     61.87     62.75    -27.42     24.00
   28.1875     61.65     63.08    -27.97     24.00
   28.1977     62.30     63.40    -27.65     24.00
   28.2079     63.04     63.73    -27.23     24.00
   28.2180     63.65     64.04    -26.94     24.00
   28.2282     64.70     64.36    -26.20     24.00
   28.2383     64.35     64.67    -26.86     24.00
   28.2485     64.21     64.97    -27.31     24.00
   28.2587     65.01     65.27    -26.81     24.00
   28.2688     66.69     65.56    -25.42     24.00
   28.2790     66.66     65.85    -25.73     24.00
   28.2892     67.30     66.13    -25.37     24.00
   28.2993     67.63     66.40    -25.31     24.00
   28.3095     68.41     66.67    -24.80     24.00
   28.3197     68.25     66.92    -25.22     24.00
   28.3298     69.24     67.17    -24.48     24.00
   28.3400     69.22     67.42    -24.74     24.00
   28.3502     68.74     67.65    -25.46     24.00
   28.3603     69.07     67.88    -25.35     24.00
   28.3705     69.28     68.10    -25.36     24.00
   28.3806     69.17     68.30    -25.68     24.00
   28.3908     70.46     68.50    -24.59     24.00
   28.4010     68.58     68.69    -26.66     24.00
   28.4111     71.19     68.87    -24.23     24.00
   28.4213     70.95     69.04    -24.64     24.00
   28.4315     70.23     69.20    -25.52     24.00
   28.4416     70.46     69.35    -25.44     24.00
   28.4518     69.54     69.49    -26.50     24.00
   28.4620     69.13     69.62    -27.04     24.00
   28.4721     70.78     69.74    -25.50     24.00
   28.4823     72.77     69.84    -23.62     24.00
   28.4925     71.23     69.94    -25.26     24.00
   28.5026     72.34     70.03    -24.23     24.00
   28.5128     71.40     70.10    -25.25     24.00
   28.5230     71.57     70.16    -25.14     24.00
   28.5331     71.80     70.21    -24.96     24.00
   28.5433     72.23     70.25    -24.57     24.00
   28.5534     71.85     70.28    -24.97     24.00
   28.5636     71.62     70.30    -25.22     24.00
   28.5738     70.85     70.30    -26.00     24.00
   28.5839     71.47     70.29    -25.37     24.00
   28.5941     73.74     70.27    -23.08     24.00
   28.6043     71.48     70.24    -25.31     24.00
   28.6144     71.72     70.20    -25.03     24.00
   28.6246     72.69     70.15    -24.01     24.00
   28.6348     72.33     70.08    -24.30     24.00
   28.6449     72.27     70.01    -24.29     24.00
   28.6551     71.43     69.92    -25.04     24.00
   28.6653     72.02     69.82    -24.35     24.00
   28.6754     70.42     69.72    -25.84     24.00
   28.6856     71.78     69.59    -24.36     24.00
   28.6957     71.00     69.46    -25.01     24.00
   28.7059     69.26     69.32    -26.61     24.00
   28.7161     69.90     69.17    -25.82     24.00
   28.7262     69.79     69.01    -25.77     24.00
   28.7364     68.86     68.84    -26.52     24.00
   28.7466     69.39     68.65    -25.81     24.00
   28.7567     68.90     68.46    -26.11     24.00
   28.7669     68.79     68.26    -26.02     24.00
   28.7771     67.77     68.05    -26.83     24.00
   28.7872     68.60     67.83    -25.78     24.00
   28.7974     67.52     67.61    -26.63     24.00
   28.8076     67.45     67.37    -26.46     24.00
   28.8177     67.54     67.13    -26.13     24.00
   28.8279     66.46     66.87    -26.96     24.00
   28.8381     67.09     66.61    -26.07     24.00
   28.8482     66.28     66.35    -26.61     24.00
   28.8584     65.46     66.07    -27.16     24.00
   28.8685     65.54     65.79    -26.80     24.00
   28.8787     66.63     65.50    -25.42     24.00
   28.8889     65.35     65.21    -26.40     24.00
   28.8990     62.98     64.91    -28.48     24.00
   28.9092     65.45     64.60    -25.70     24.00
   28.9194     64.18     64.29    -26.66     24.00
   28.9295     62.84     63.98    -27.69     24.00
   28.9397     62.52     63.66    -27.68     24.00
   28.9499     62.95     63.33    -26.93     24.00
   28.9600     61.71     63.01    -27.84     24.00
   28.9702     61.98     62.67    -27.24     24.00
   28.9804     60.60     62.34    -28.28     24.00
   28.9905     61.20     62.00    -27.35     24.00
   29.0007     60.39     61.66    -27.82     24.00
   29.0108     59.84     61.32    -28.02     24.00
   29.0210     59.32     60.97    -28.20     24.00
   29.0312     59.45     60.62    -27.72     24.00
   29.0413     58.26     60.28    -28.56     24.00
   29.0515     59.04     59.93    -27.43     24.00
   29.0617     58.94     59.57    -27.18     24.00
   29.0718     58.22     59.22    -27.55     24.00
   29.0820     58.02     58.87    -27.40     24.00
   29.0922     57.73     58.52    -27.33     24.00
   29.1023     56.93     58.17    -27.78     24.00
   29.1125     56.65     57.82    -27.71     24.00
   29.1227     56.92     57.46    -27.09     24.00
   29.1328     55.32     57.12    -28.34     24.00
   29.1430     55.79     56.77    -27.52     24.00
   29.1531     55.16     56.42    -27.81     24.00
   29.1633     54.01     56.08    -28.61     24.00
   29.1735     54.43     55.73    -27.85     24.00
   29.1836     54.29     55.39    -27.65     24.00
   29.1938     53.95     55.05    -27.65     24.00
   29.2040     53.52     54.72    -27.74     24.00
   29.2141     53.47     54.39    -27.46     24.00
   29.2243     53.30     54.05    -27.30     24.00
   29.2345     53.44     53.73    -26.83     24.00
   29.2446     52.63     53.40    -27.32     24.00
   29.2548     52.42     53.08    -27.21     24.00
   29.2650     52.29     52.76    -27.02     24.00
   29.2751     51.60     52.45    -27.40     24.00
   29.2853     51.00     52.14    -27.69     24.00
   29.2955     50.68     51.84    -27.70     24.00
   29.3056     50.93     51.54    -27.15     24.00
   29.3158     50.25     51.24    -27.54     24.00
   29.3259     50.77     50.95    -26.73     24.00
   29.3361     49.91     50.66    -27.30     24.00
   29.3463     50.57     50.38    -26.35     24.00
   29.3564     49.45     50.10    -27.19     24.00
   29.3666     50.66     49.82    -25.71     24.00
   29.3768     49.98     49.55    -26.12     24.00
   29.3869     48.86     49.29    -26.98     24.00
   29.3971     49.18     49.03    -26.39     24.00
   29.4073     48.21     48.77    -27.11     24.00
   29.4174     48.30     48.52    -26.77     24.00
   29.4276     49.65     48.28    -25.17     24.00
   29.4378     49.38     48.04    -25.20     24.00
   29.4479     46.93     47.80    -27.42     24.00
   29.4581     48.00     47.57    -26.12     24.00
   29.4682     46.86     47.34    -27.03     24.00
   29.4784     47.00     47.12    -26.67     24.00
   29.4886     47.37     46.91    -26.08     24.00
   29.4987     46.68     46.70    -26.56     24.00
   29.5089     46.73     46.49    -26.30     24.00
   29.5191     46.91     46.29    -25.92     24.00
   29.5292     47.18     46.09    -25.46     24.00
   29.5394     46.62     45.90    -25.82     24.00
   29.5496     44.97     45.71    -27.28     24.00
   29.5597     45.26     45.53    -26.81     24.00
   29.5699     46.05     45.35    -25.84     24.00
   29.5801     45.70     45.17    -26.02     24.00
   29.5902     45.85     45.00    -25.70     24.00
   29.6004     45.32     44.84    -26.06     24.00
   29.6106     44.73     44.68    -26.49     24.00
   29.6207     45.08     44.52    -25.99     24.00
   29.6309     45.54     44.37    -25.37     24.00
   29.6410     44.76     44.22    -26.00     24.00
   29.6512     44.14     44.07    -26.48     24.00
   29.6614     43.87     43.93    -26.61     24.00
   29.6715     44.32     43.80    -26.02     24.00
   29.6817     44.27     43.66    -25.94     24.00
   29.6919     44.27     43.53    -25.81     24.00
   29.7020     44.31     43.41    -25.64     24.00
   29.7122     43.51     43.28    -26.32     24.00
   29.7224     44.10     43.16    -25.61     24.00
   29.7325     43.60     43.05    -25.99     24.00
   29.7427     44.07     42.93    -25.41     24.00
   29.7529     44.03     42.82    -25.34     24.00
   29.7630     43.97     42.72    -25.29     24.00
   29.7732     43.33     42.61    -25.83     24.00
   29.7833     43.45     42.51    -25.61     24.00
   29.7935     43.97     42.41    -24.99     24.00
   29.8037     42.60     42.32    -26.26     24.00
   29.8138     42.13     42.22    -26.64     24.00
   29.8240     43.85     42.13    -24.83     24.00
   29.8342     41.91     42.04    -26.68     24.00
   29.8443     42.73     41.96    -25.77     24.00
   29.8545     43.34     41.87    -25.08     24.00
   29.8647     43.45     41.79    -24.88     24.00
   29.8748     42.47     41.71    -25.78     24.00
   29.8850     42.51     41.63    -25.67     24.00
   29.8952     42.59     41.55    -25.51     24.00
   29.9053     42.58     41.48    -25.44     24.00
   29.9155     42.71     41.41    -25.24     24.00
   29.9257     42.11     41.33    -25.77     24.00
   29.9358     42.50     41.26    -25.31     24.00
   29.9460     42.59     41.19    -25.15     24.00
   29.9561     43.04     41.13    -24.63     24.00
   29.9663     42.17     41.06    -25.44     24.00
   29.9765     41.84     41.00    -25.70     24.00
   29.9866     40.88     40.93    -26.60     24.00
   29.9968     42.00     40.87    -25.41     24.00
   30.0070     41.33     40.81    -26.02     24.00
   30.0171     40.57     40.75    -26.72     24.00
   30.0273     42.13     40.69    -25.10     24.00
   30.0375     41.68     40.63    -25.49     24.00
   30.0476     42.10     40.57    -25.01     24.00
   30.0578     40.70     40.51    -26.36     24.00
   30.0680     41.77     40.45    -25.23     24.00
   30.0781     41.35     40.40    -25.59     24.00
   30.0883     42.54     40.34    -24.35     24.00
   30.0984     41.87     40.28    -24.96     24.00
   30.1086     40.74     40.23    -26.04     24.00
   30.1188     40.90     40.17    -25.82     24.00
   30.1289     41.79     40.12    -24.88     24.00
   30.1391     40.67     40.07    -25.94     24.00
   30.1493     41.13     40.01    -25.43     24.00
   30.1594     40.64     39.96    -25.86     24.00
   30.1696     40.71     39.91    -25.74     24.00
   30.1798     41.08     39.85    -25.32     24.00
   30.1899     41.71     39.80    -24.64     24.00
   30.2001     40.30     39.75    -25.99     24.00
   30.2103     40.38     39.69    -25.86     24.00
   30.2204     40.13     39.64    -26.06     24.00
   30.2306     39.93     39.59    -26.20     24.00
   30.2408     41.11     39.53    -24.97     24.00
   30.2509     40.91     39.48    -25.12     24.00
   30.2611     40.04     39.43    -25.93     24.00
   30.2712     39.60     39.37    -26.32     24.00
   30.2814     40.19     39.32    -25.68     24.00
   30.2916     38.91     39.27    -26.90     24.00
   30.3017     39.46     39.21    -26.30     24.00
   30.3119     39.13     39.16    -26.58     24.00
   30.3221     39.50     39.11    -26.15     24.00
   30.3322     39.16     39.05    -26.44     24.00
   30.3424     39.88     39.00    -25.66     24.00
   30.3526     38.43     38.94    -27.06     24.00
   30.3627     39.37     38.89    -26.07     24.00
   30.3729     39.04     38.83    -26.34     24.00
   30.3831     38.14     38.78    -27.18     24.00
   30.3932     39.43     38.72    -25.84     24.00
   30.4034     38.48     38.67    -26.73     24.00
   30.4135     37.65     38.61    -27.51     24.00
   30.4237     38.99     38.56    -26.11     24.00
   30.4339     37.69     38.50    -27.35     24.00
   30.4440     39.08     38.44    -25.91     24.00
   30.4542     37.18     38.39    -27.75     24.00
   30.4644     37.20     38.33    -27.67     24.00
   30.4745     37.34     38.27    -27.48     24.00
   30.4847     38.22     38.21    -26.54     24.00
   30.4949     36.95     38.15    -27.75     24.00
   30.5050     36.88     38.10    -27.76     24.00
   30.5152     36.93     38.04    -27.65     24.00
   30.5254     36.19     37.98    -28.33     24.00
   30.5355     36.71     37.92    -27.75     24.00
   30.5457     36.95     37.86    -27.45     24.00
   30.5559     37.79     37.80    -26.55     24.00
   30.5660     36.73     37.74    -27.55     24.00
   30.5762     36.77     37.68    -27.45     24.00
   30.5863     36.88     37.62    -27.28     24.00
   30.5965     36.05     37.56    -28.05     24.00
   30.6067     37.37     37.49    -26.67     24.00
   30.6168     36.51     37.43    -27.47     24.00
   30.6270     35.70     37.37    -28.22     24.00
   30.6372     36.03     37.31    -27.83     24.00
   30.6473     36.51     37.25    -27.28     24.00
   30.6575     35.97     37.19    -27.76     24.00
   30.6677     35.84     37.12    -27.83     24.00
   30.6778     35.84     37.06    -27.77     24.00
   30.6880     34.86     37.00    -28.68     24.00
   30.6982     35.77     36.93    -27.71     24.00
   30.7083     35.46     36.87    -27.96     24.00
   30.7185     35.54     36.81    -27.81     24.00
   30.7286     35.27     36.74    -28.02     24.00
   30.7388     35.32     36.68    -27.91     24.00
   30.7490     35.30     36.62    -27.86     24.00
   30.7591     35.59     36.55    -27.51     24.00
   30.7693     35.57     36.49    -27.46     24.00
   30.7795     34.66     36.42    -28.31     24.00
   30.7896     35.62     36.36    -27.29     24.00
   30.7998     34.92     36.30    -27.92     24.00
   30.8100     35.09     36.23    -27.69     24.00
   30.8201     34.50     36.17    -28.21     24.00
   30.8303     35.81     36.10    -26.84     24.00
   30.8405     34.54     36.04    -28.04     24.00
   30.8506     34.77     35.97    -27.75     24.00
   30.8608     35.32     35.91    -27.14     24.00
   30.8710     33.84     35.84    -28.55     24.00
   30.8811     34.49     35.78    -27.84     24.00
   30.8913     34.84     35.72    -27.42     24.00
   30.9014     34.02     35.65    -28.18     24.00
   30.9116     35.59     35.59    -26.54     24.00
   30.9218     33.52     35.52    -28.55     24.00
   30.9319     34.86     35.46    -27.14     24.00
   30.9421     34.08     35.39    -27.86     24.00
   30.9523     34.85     35.33    -27.03     24.00
   30.9624     33.95     35.27    -27.86     24.00
   30.9726     33.98     35.20    -27.77     24.00
   30.9828     34.60     35.14    -27.08     24.00
   30.9929     33.83     35.08    -27.79     24.00
   31.0031     34.52     35.01    -27.04     24.00
   31.0133     34.49     34.95    -27.00     24.00
   31.0234     33.30     34.89    -28.13     24.00
   31.0336     33.45     34.82    -27.92     24.00
   31.0437     34.28     34.76    -27.03     24.00
   31.0539     33.54     34.70    -27.70     24.00
   31.0641     33.21     34.63    -27.97     24.00
   31.0742     33.66     34.57    -27.46     24.00
   31.0844     33.29     34.51    -27.77     24.00
   31.0946     33.29     34.45    -27.70     24.00
   31.1047     33.52     34.39    -27.41     24.00
   31.1149     32.93     34.33    -27.94     24.00
   31.1251     33.07     34.27    -27.74     24.00
   31.1352     34.09     34.20    -26.66     24.00
   31.1454     32.70     34.14    -27.99     24.00
   31.1556     33.32     34.08    -27.31     24.00
   31.1657     33.17     34.03    -27.40     24.00
   31.1759     32.10     33.97    -28.41     24.00
   31.1860     33.84     33.91    -26.61     24.00
   31.1962     33.70     33.85    -26.69     24.00
   31.2064     33.28     33.79    -27.06     24.00
   31.2165     33.07     33.73    -27.21     24.00
   31.2267     33.35     33.67    -26.87     24.00
   31.2369     32.67     33.62    -27.49     24.00
   31.2470     32.64     33.56    -27.47     24.00
   31.2572     33.48     33.50    -26.57     24.00
   31.2674     33.23     33.45    -26.76     24.00
   31.2775     32.63     33.39    -27.31     24.00
   31.2877     34.29     33.34    -25.59     24.00
   31.2979     32.36     33.28    -27.47     24.00
   31.3080     33.41     33.23    -26.36     24.00
   31.3182     33.23     33.17    -26.49     24.00
   31.3284     32.46     33.12    -27.21     24.00
   31.3385     31.85     33.07    -27.76     24.00
   31.3487     32.40     33.02    -27.16     24.00
   31.3588     33.23     32.96    -26.28     24.00
   31.3690     32.52     32.91    -26.94     24.00
   31.3792     32.52     32.86    -26.89     24.00
   31.3893     33.02     32.81    -26.34     24.00
   31.3995     32.97     32.76    -26.34     24.00
   31.4097     32.18     32.71    -27.08     24.00
   31.4198     32.40     32.66    -26.81     24.00
   31.4300     32.86     32.62    -26.30     24.00
   31.4402     32.98     32.57    -26.13     24.00
   31.4503     31.81     32.52    -27.26     24.00
   31.4605     31.26     32.47    -27.76     24.00
   31.4707     32.74     32.43    -26.23     24.00
   31.4808     32.30     32.38    -26.63     24.00
   31.4910     31.43     32.34    -27.45     24.00
   31.5011     32.91     32.29    -25.93     24.00
   31.5113     32.37     32.25    -26.42     24.00
   31.5215     32.32     32.20    -26.43     24.00
   31.5316     32.66     32.16    -26.05     24.00
   31.5418     32.65     32.12    -26.02     24.00
   31.5520     31.47     32.08    -27.15     24.00
   31.5621     31.93     32.04    -26.65     24.00
   31.5723     31.71     32.00    -26.83     24.00
   31.5825     31.36     31.96    -27.14     24.00
   31.5926     31.30     31.92    -27.16     24.00
   31.6028     32.06     31.88    -26.36     24.00
   31.6130     31.81     31.84    -26.58     24.00
   31.6231     31.81     31.80    -26.54     24.00
   31.6333     31.78     31.77    -26.53     24.00
   31.6435     32.66     31.73    -25.62     24.00
   31.6536     32.23     31.69    -26.01     24.00
   31.6638     31.82     31.66    -26.39     24.00
   31.6739     31.24     31.63    -26.93     24.00
   31.6841     32.52     31.59    -25.62     24.00
   31.6943     31.66     31.56    -26.44     24.00
   31.7044     31.78     31.53    -26.29     24.00
   31.7146     32.36     31.49    -25.68     24.00
   31.7248     31.46     31.46    -26.55     24.00
   31.7349     31.60     31.43    -26.38     24.00
   31.7451     31.98     31.40    -25.97     24.00
   31.7553     31.84     31.37    -26.08     24.00
   31.7654     31.41     31.34    -26.48     24.00
   31.7756     32.45     31.32    -25.41     24.00
   31.7858     32.19     31.29    -25.64     24.00
   31.7959     32.10     31.26    -25.71     24.00
   31.8061     31.81     31.23    -25.97     24.00
   31.8162     32.55     31.21    -25.21     24.00
   31.8264     31.95     31.18    -25.78     24.00
   31.8366     32.45     31.16    -25.26     24.00
   31.8467     31.09     31.14    -26.59     24.00
   31.8569     31.58     31.11    -26.08     24.00
   31.8671     31.37     31.09    -26.27     24.00
   31.8772     31.51     31.07    -26.10     24.00
   31.8874     31.92     31.05    -25.67     24.00
   31.8976     32.56     31.03    -25.01     24.00
   31.9077     32.40     31.01    -25.15     24.00
   31.9179     32.18     30.99    -25.35     24.00
   31.9281     31.67     30.97    -25.84     24.00
   31.9382     31.28     30.95    -26.21     24.00
   31.9484     31.84     30.93    -25.64     24.00
   31.9586     31.27     30.91    -26.19     24.00
   31.9687     31.43     30.90    -26.01     24.00
   31.9789     31.52     30.88    -25.91     24.00
   31.9890     32.58     30.86    -24.83     24.00
   31.9992     31.25     30.85    -26.15     24.00
   32.0094     31.24     30.84    -26.14     24.00
   32.0195     31.73     30.82    -25.64     24.00
   32.0297     31.74     30.81    -25.61     24.00
   32.0399     31.45     30.80    -25.89     24.00
   32.0500     31.62     30.78    -25.71     24.00
   32.0602     31.27     30.77    -26.05     24.00
   32.0704     32.55     30.76    -24.76     24.00
   32.0805     32.57     30.75    -24.73     24.00
   32.0907     32.18     30.74    -25.11     24.00
   32.1009     31.39     30.73    -25.89     24.00
   32.1110     32.16     30.72    -25.11     24.00
   32.1212     31.71     30.71    -25.55     24.00
   32.1313     31.54     30.70    -25.71     24.00
   32.1415     32.08     30.70    -25.16     24.00
   32.1517     32.05     30.69    -25.19     24.00
   32.1618     32.82     30.68    -24.41     24.00
   32.1720     32.12     30.68    -25.10     24.00
   32.1822     31.87     30.67    -25.35     24.00
   32.1923     32.19     30.67    -25.02     24.00
   32.2025     31.79     30.66    -25.42     24.00
   32.2127     32.29     30.66    -24.91     24.00
   32.2228     32.99     30.65    -24.21     24.00
   32.2330     32.40     30.65    -24.79     24.00
   32.2432     33.26     30.65    -23.93     24.00
   32.2533     33.03     30.64    -24.16     24.00
   32.2635     32.78     30.64    -24.41     24.00
   32.2737     31.66     30.64    -25.52     24.00
   32.2838     32.65     30.64    -24.53     24.00
   32.2940     32.80     30.64    -24.38     24.00
   32.3041     31.81     30.63    -25.37     24.00
   32.3143     32.68     30.63    -24.50     24.00
   32.3245     33.26     30.63    -23.92     24.00
   32.3346     32.38     30.63    -24.80     24.00
   32.3448     32.52     30.64    -24.66     24.00
   32.3550     32.57     30.64    -24.61     24.00
   32.3651     31.82     30.64    -25.36     24.00
   32.3753     31.84     30.64    -25.35     24.00
   32.3855     32.93     30.64    -24.26     24.00
   32.3956     32.59     30.64    -24.60     24.00
   32.4058     31.50     30.65    -25.69     24.00
   32.4160     31.76     30.65    -25.43     24.00
   32.4261     32.28     30.65    -24.92     24.00
   32.4363     32.85     30.65    -24.35     24.00
   32.4464     32.76     30.66    -24.44     24.00
   32.4566     32.45     30.66    -24.76     24.00
   32.4668     33.37     30.67    -23.84     24.00
   32.4769     32.80     30.67    -24.42     24.00
   32.4871     33.27     30.67    -23.95     24.00
   32.4973     32.30     30.68    -24.93     24.00
   32.5074     32.82     30.68    -24.41     24.00
   32.5176     32.67     30.69    -24.57     24.00
   32.5278     32.48     30.69    -24.76     24.00
   32.5379     32.64     30.70    -24.61     24.00
   32.5481     31.75     30.71    -25.50     24.00
   32.5583     32.32     30.71    -24.94     24.00
   32.5684     32.19     30.72    -25.07     24.00
   32.5786     32.49     30.72    -24.78     24.00
   32.5888     32.15     30.73    -25.12     24.00
   32.5989     32.43     30.74    -24.85     24.00
   32.6091     32.96     30.74    -24.33     24.00
   32.6192     32.59     30.75    -24.70     24.00
   32.6294     31.87     30.75    -25.43     24.00
   32.6396     31.90     30.76    -25.41     24.00
   32.6497     32.83     30.77    -24.48     24.00
   32.6599     31.99     30.77    -25.33     24.00
   32.6701     31.94     30.78    -25.39     24.00
   32.6802     32.70     30.79    -24.63     24.00
   32.6904     32.68     30.79    -24.66     24.00
   32.7006     32.15     30.80    -25.20     24.00
   32.7107     32.32     30.81    -25.03     24.00
   32.7209     31.87     30.81    -25.49     24.00
   32.7311     32.12     30.82    -25.25     24.00
   32.7412     32.26     30.83    -25.11     24.00
   32.7514     32.31     30.84    -25.07     24.00
   32.7615     32.23     30.84    -25.16     24.00
   32.7717     33.05     30.85    -24.34     24.00
   32.7819     32.84     30.86    -24.56     24.00
   32.7920     31.80     30.86    -25.61     24.00
   32.8022     32.25     30.87    -25.16     24.00
   32.8124     32.71     30.88    -24.71     24.00
   32.8225     31.84     30.88    -25.59     24.00
   32.8327     32.01     30.89    -25.42     24.00
   32.8429     32.77     30.89    -24.67     24.00
   32.8530     31.44     30.90    -26.01     24.00
   32.8632     32.07     30.91    -25.38     24.00
   32.8734     32.57     30.91    -24.89     24.00
   32.8835     31.89     30.92    -25.57     24.00
   32.8937     32.85     30.92    -24.62     24.00
   32.9039     32.26     30.93    -25.21     24.00
   32.9140     32.59     30.93    -24.89     24.00
   32.9242     32.73     30.94    -24.75     24.00
   32.9343     32.73     30.94    -24.76     24.00
   32.9445     32.57     30.95    -24.92     24.00
   32.9547     31.74     30.95    -25.76     24.00
   32.9648     32.61     30.96    -24.89     24.00
   32.9750     31.61     30.96    -25.90     24.00
   32.9852     32.05     30.97    -25.46     24.00
   32.9953     32.59     30.97    -24.93     24.00
   33.0055     31.29     30.97    -26.23     24.00
   33.0157     32.23     30.98    -25.29     24.00
   33.0258     32.73     30.98    -24.79     24.00
   33.0360     32.17     30.98    -25.36     24.00
   33.0462     32.00     30.98    -25.53     24.00
   33.0563     31.83     30.99    -25.70     24.00
   33.0665     31.98     30.99    -25.55     24.00
   33.0766     32.63     30.99    -24.91     24.00
   33.0868     31.80     30.99    -25.74     24.00
   33.0970     32.66     30.99    -24.88     24.00
   33.1071     31.73     30.99    -25.81     24.00
   33.1173     32.20     30.99    -25.34     24.00
   33.1275     31.97     30.99    -25.57     24.00
   33.1376     32.19     30.99    -25.35     24.00
   33.1478     32.61     30.99    -24.93     24.00
   33.1580     31.88     30.99    -25.66     24.00
   33.1681     33.60     30.99    -23.94     24.00
   33.1783     32.51     30.99    -25.03     24.00
   33.1885     32.19     30.99    -25.35     24.00
   33.1986     31.90     30.99    -25.63     24.00
   33.2088     32.74     30.99    -24.79     24.00
   33.2189     31.70     30.98    -25.83     24.00
   33.2291     31.55     30.98    -25.98     24.00
   33.2393     32.48     30.98    -25.04     24.00
   33.2494     31.46     30.97    -26.06     24.00
   33.2596     31.92     30.97    -25.60     24.00
   33.2698     32.20     30.97    -25.31     24.00
   33.2799     32.04     30.96    -25.47     24.00
   33.2901     32.74     30.96    -24.76     24.00
   33.3003     31.78     30.95    -25.72     24.00
   33.3104     32.38     30.94    -25.11     24.00
   33.3206     32.61     30.94    -24.87     24.00
   33.3308     32.03     30.93    -25.45     24.00
   33.3409     32.61     30.93    -24.86     24.00
   33.3511     31.97     30.92    -25.49     24.00
   33.3613     32.51     30.91    -24.95     24.00
   33.3714     32.12     30.90    -25.33     24.00
   33.3816     32.63     30.89    -24.81     24.00
   33.3917     32.07     30.88    -25.36     24.00
   33.4019     32.01     30.88    -25.41     24.00
   33.4121     32.01     30.87    -25.40     24.00
   33.4222     32.04     30.86    -25.36     24.00
   33.4324     31.79     30.85    -25.60     24.00
   33.4426     32.37     30.83    -25.01     24.00
   33.4527     33.03     30.82    -24.34     24.00
   33.4629     32.52     30.81    -24.84     24.00
   33.4731     32.78     30.80    -24.57     24.00
   33.4832     32.29     30.79    -25.04     24.00
   33.4934     32.18     30.78    -25.14     24.00
   33.5036     31.45     30.76    -25.86     24.00
   33.5137     32.20     30.75    -25.09     24.00
   33.5239     31.58     30.73    -25.70     24.00
   33.5340     31.94     30.72    -25.33     24.00
   33.5442     32.44     30.71    -24.81     24.00
   33.5544     31.37     30.69    -25.87     24.00
   33.5645     31.51     30.67    -25.71     24.00
   33.5747     31.64     30.66    -25.56     24.00
   33.5849     31.32     30.64    -25.87     24.00
   33.5950     31.81     30.63    -25.36     24.00
   33.6052     32.05     30.61    -25.10     24.00
   33.6154     30.85     30.59    -26.29     24.00
   33.6255     31.46     30.57    -25.66     24.00
   33.6357     30.87     30.55    -26.23     24.00
   33.6459     31.59     30.54    -25.49     24.00
   33.6560     30.59     30.52    -26.47     24.00
   33.6662     30.36     30.50    -26.68     24.00
   33.6764     31.30     30.48    -25.72     24.00
   33.6865     30.37     30.46    -26.63     24.00
   33.6967     30.01     30.44    -26.97     24.00
   33.7068     30.32     30.42    -26.64     24.00
   33.7170     30.65     30.40    -26.29     24.00
   33.7272     30.00     30.37    -26.92     24.00
   33.7373     29.88     30.35    -27.02     24.00
   33.7475     29.46     30.33    -27.41     24.00
   33.7577     29.87     30.31    -26.98     24.00
   33.7678     29.76     30.28    -27.07     24.00
   33.7780     30.26     30.26    -26.55     24.00
   33.7882     29.98     30.24    -26.80     24.00
   33.7983     28.84     30.21    -27.92     24.00
   33.8085     30.65     30.19    -26.08     24.00
   33.8187     29.44     30.16    -27.27     24.00
   33.8288     29.49     30.14    -27.19     24.00
   33.8390     29.46     30.11    -27.20     24.00
   33.8491     29.43     30.09    -27.20     24.00
   33.8593     29.15     30.06    -27.46     24.00
   33.8695     29.82     30.03    -26.76     24.00
   33.8796     29.20     30.01    -27.35     24.00
   33.8898     29.19     29.98    -27.34     24.00
   33.9000     28.62     29.95    -27.88     24.00
   33.9101     28.57     29.93    -27.90     24.00
   33.9203     28.62     29.90    -27.82     24.00
   33.9305     28.70     29.87    -27.71     24.00
   33.9406     28.66     29.84    -27.73     24.00
   33.9508     28.85     29.81    -27.51     24.00
   33.9610     28.57     29.78    -27.76     24.00
   33.9711     28.49     29.75    -27.81     24.00
   33.9813     27.75     29.72    -28.52     24.00
   33.9915     28.64     29.69    -27.60     24.00
   34.0016     28.16     29.66    -28.05     24.00
   34.0118     28.05     29.63    -28.13     24.00
   34.0219     28.19     29.60    -27.96     24.00
   34.0321     28.01     29.57    -28.11     24.00
   34.0423     27.88     29.54    -28.21     24.00
   34.0524     27.82     29.51    -28.24     24.00
   34.0626     28.07     29.48    -27.95     24.00
   34.0728     27.35     29.45    -28.64     24.00
   34.0829     28.02     29.41    -27.94     24.00
   34.0931     27.71     29.38    -28.22     24.00
   34.1033     27.59     29.35    -28.31     24.00
   34.1134     28.07     29.32    -27.79     24.00
   34.1236     27.36     29.28    -28.47     24.00
   34.1338     26.87     29.25    -28.93     24.00
   34.1439     27.20     29.22    -28.56     24.00
   34.1541     26.71     29.19    -29.02     24.00
   34.1642     26.64     29.15    -29.06     24.00
   34.1744     26.85     29.12    -28.81     24.00
   34.1846     27.36     29.08    -28.27     24.00
   34.1947     27.07     29.05    -28.53     24.00
   34.2049     26.55     29.02    -29.01     24.00
   34.2151     27.18     28.98    -28.35     24.00
   34.2252     26.46     28.95    -29.03     24.00
   34.2354     26.52     28.91    -28.94     24.00
   34.2456     26.56     28.88    -28.87     24.00
   34.2557     26.90     28.84    -28.49     24.00
   34.2659     26.55     28.81    -28.81     24.00
   34.2761     27.05     28.77    -28.27     24.00
   34.2862     26.76     28.74    -28.53     24.00
   34.2964     26.81     28.70    -28.44     24.00
   34.3066     26.23     28.67    -28.99     24.00
   34.3167     26.04     28.63    -29.14     24.00
   34.3269     25.79     28.60    -29.36     24.00
   34.3370     26.54     28.56    -28.57     24.00
   34.3472     26.48     28.53    -28.59     24.00
   34.3574     26.64     28.49    -28.40     24.00
   34.3675     25.42     28.46    -29.58     24.00
   34.3777     26.60     28.42    -28.37     24.00
   34.3879     25.95     28.39    -28.98     24.00
   34.3980     25.92     28.35    -28.98     24.00
   34.4082     26.33     28.31    -28.53     24.00
   34.4184     26.48     28.28    -28.35     24.00
   34.4285     25.53     28.24    -29.26     24.00
   34.4387     25.93     28.21    -28.82     24.00
   34.4489     25.27     28.17    -29.45     24.00
   34.4590     26.19     28.14    -28.49     24.00
   34.4692     26.32     28.10    -28.33     24.00
   34.4793     25.49     28.07    -29.12     24.00
   34.4895     26.13     28.03    -28.45     24.00
   34.4997     26.03     27.99    -28.51     24.00
   34.5098     26.30     27.96    -28.20     24.00
   34.5200     25.51     27.92    -28.96     24.00
   34.5302     24.88     27.89    -29.55     24.00
   34.5403     26.45     27.85    -27.95     24.00
   34.5505     26.02     27.82    -28.34     24.00
   34.5607     25.96     27.78    -28.37     24.00
   34.5708     25.83     27.75    -28.46     24.00
   34.5810     24.98     27.71    -29.28     24.00
   34.5912     26.13     27.67    -28.09     24.00
   34.6013     25.75     27.64    -28.44     24.00
   34.6115     26.60     27.60    -27.55     24.00
   34.6217     25.70     27.57    -28.42     24.00
   34.6318     25.09     27.53    -28.99     24.00
   34.6420     25.93     27.50    -28.12     24.00
   34.6521     26.01     27.46    -28.00     24.00
   34.6623     25.54     27.43    -28.44     24.00
   34.6725     26.15     27.40    -27.79     24.00
   34.6826     25.32     27.36    -28.59     24.00
   34.6928     26.04     27.33    -27.83     24.00
   34.7030     25.47     27.29    -28.37     24.00
   34.7131     25.41     27.26    -28.39     24.00
   34.7233     25.70     27.22    -28.07     24.00
   34.7335     25.57     27.19    -28.17     24.00
   34.7436     25.57     27.16    -28.13     24.00
   34.7538     25.16     27.12    -28.51     24.00
   34.7640     25.80     27.09    -27.84     24.00
   34.7741     25.15     27.06    -28.45     24.00
   34.7843     25.16     27.02    -28.41     24.00
   34.7944     25.46     26.99    -28.08     24.00
   34.8046     24.94     26.96    -28.56     24.00
   34.8148     25.47     26.92    -28.00     24.00
   34.8249     25.49     26.89    -27.95     24.00
   34.8351     25.01     26.86    -28.40     24.00
   34.8453     25.25     26.83    -28.12     24.00
   34.8554     25.32     26.80    -28.02     24.00
   34.8656     25.23     26.76    -28.08     24.00
   34.8758     24.94     26.73    -28.34     24.00
   34.8859     25.87     26.70    -27.38     24.00
   34.8961     24.51     26.67    -28.71     24.00
   34.9063     23.99     26.64    -29.19     24.00
   34.9164     23.98     26.61    -29.17     24.00
   34.9266     25.64     26.58    -27.48     24.00
   34.9367     24.68     26.55    -28.41     24.00
   34.9469     25.31     26.52    -27.75     24.00
   34.9571     25.37     26.49    -27.66     24.00
   34.9672     24.79     26.46    -28.21     24.00
   34.9774     25.68     26.43    -27.29     24.00
   34.9876     25.84     26.40    -27.10     24.00
   34.9977     25.16     26.37    -27.75     24.00
   35.0079     24.55     26.34    -28.33     24.00
   35.0181     24.98     26.31    -27.87     24.00
   35.0282     24.54     26.28    -28.29     24.00
   35.0384     24.26     26.25    -28.54     24.00
   35.0486     24.91     26.22    -27.86     24.00
   35.0587     24.17     26.20    -28.57     24.00
   35.0689     24.45     26.17    -28.26     24.00
   35.0791     24.65     26.14    -28.04     24.00
   35.0892     24.40     26.11    -28.26     24.00
   35.0994     24.63     26.08    -28.00     24.00
   35.1095     24.23     26.06    -28.37     24.00
   35.1197     24.82     26.03    -27.76     24.00
   35.1299     25.70     26.00    -26.85     24.00
   35.1400     24.96     25.98    -27.56     24.00
   35.1502     25.13     25.95    -27.37     24.00
   35.1604     24.65     25.93    -27.82     24.00
   35.1705     25.01     25.90    -27.44     24.00
   35.1807     24.49     25.87    -27.93     24.00
   35.1909     24.82     25.85    -27.58     24.00
   35.2010     24.51     25.82    -27.86     24.00
   35.2112     25.07     25.80    -27.28     24.00
   35.2214     24.85     25.77    -27.47     24.00
   35.2315     24.29     25.75    -28.01     24.00
   35.2417     24.75     25.73    -27.52     24.00
   35.2518     24.25     25.70    -28.00     24.00
   35.2620     24.87     25.68    -27.36     24.00
   35.2722     23.82     25.66    -28.38     24.00
   35.2823     24.21     25.63    -27.97     24.00
   35.2925     24.30     25.61    -27.86     24.00
   35.3027     24.61     25.59    -27.52     24.00
   35.3128     24.39     25.56    -27.72     24.00
   35.3230     23.87     25.54    -28.22     24.00
   35.3332     24.51     25.52    -27.56     24.00
   35.3433     24.82     25.50    -27.22     24.00
   35.3535     24.79     25.48    -27.23     24.00
   35.3637     24.24     25.46    -27.76     24.00
   35.3738     24.12     25.43    -27.86     24.00
   35.3840     24.67     25.41    -27.29     24.00
   35.3942     24.45     25.39    -27.49     24.00
   35.4043     24.80     25.37    -27.12     24.00
   35.4145     25.23     25.35    -26.67     24.00
   35.4246     23.82     25.33    -28.06     24.00
   35.4348     24.02     25.31    -27.84     24.00
   35.4450     23.91     25.29    -27.93     24.00
   35.4551     24.71     25.27    -27.11     24.00
   35.4653     24.63     25.25    -27.17     24.00
   35.4755     24.55     25.24    -27.23     24.00
   35.4856     24.56     25.22    -27.20     24.00
   35.4958     24.15     25.20    -27.60     24.00
   35.5060     24.26     25.18    -27.47     24.00
   35.5161     25.03     25.16    -26.68     24.00
   35.5263     25.04     25.15    -26.65     24.00
   35.5365     24.47     25.13    -27.20     24.00
   35.5466     24.52     25.11    -27.14     24.00
   35.5568     24.50     25.09    -27.14     24.00
   35.5669     24.49     25.08    -27.13     24.00
   35.5771     24.35     25.06    -27.26     24.00
   35.5873     24.40     25.04    -27.19     24.00
   35.5974     24.44     25.03    -27.13     24.00
   35.6076     24.35     25.01    -27.21     24.00
   35.6178     24.88     25.00    -26.66     24.00
   35.6279     23.67     24.98    -27.86     24.00
   35.6381     24.73     24.96    -26.78     24.00
   35.6483     24.16     24.95    -27.34     24.00
   35.6584     24.12     24.93    -27.36     24.00
   35.6686     23.99     24.92    -27.48     24.00
   35.6788     24.43     24.90    -27.02     24.00
   35.6889     23.94     24.89    -27.50     24.00
   35.6991     24.54     24.88    -26.88     24.00
   35.7093     24.22     24.86    -27.19     24.00
   35.7194     24.09     24.85    -27.30     24.00
   35.7296     24.22     24.84    -27.16     24.00
   35.7397     23.95     24.82    -27.42     24.00
   35.7499     24.29     24.81    -27.06     24.00
   35.7601     23.82     24.80    -27.52     24.00
   35.7702     23.52     24.78    -27.81     24.00
   35.7804     24.51     24.77    -26.81     24.00
   35.7906     24.28     24.76    -27.02     24.00
   35.8007     24.11     24.75    -27.18     24.00
   35.8109     24.41     24.73    -26.87     24.00
   35.8211     23.30     24.72    -27.97     24.00
   35.8312     23.55     24.71    -27.71     24.00
   35.8414     24.20     24.70    -27.04     24.00
   35.8516     23.38     24.69    -27.85     24.00
   35.8617     23.69     24.68    -27.53     24.00
   35.8719     23.64     24.66    -27.57     24.00
   35.8820     23.93     24.65    -27.27     24.00
   35.8922     24.52     24.64    -26.67     24.00
   35.9024     24.39     24.63    -26.79     24.00
   35.9125     23.09     24.62    -28.08     24.00
   35.9227     23.82     24.61    -27.34     24.00
   35.9329     24.04     24.60    -27.11     24.00
   35.9430     23.55     24.59    -27.59     24.00
   35.9532     23.74     24.58    -27.39     24.00
   35.9634     23.57     24.57    -27.55     24.00
   35.9735     24.55     24.56    -26.56     24.00
   35.9837     23.84     24.55    -27.26     24.00
   35.9939     23.62     24.54    -27.47     24.00
