 => TITLE: 
 => Data file name: C:\Users\stefano\Nextcloud2\uni\master-thesis\XRD\data\G309\G309--5-40-0.01-1000ms.xy
 => Instrm        :    1
 => Lambda(1&2)   :   1.54060  1.54060
 => Numb.of.points:      2951
 => Numb.of.peaks :         8
    2Theta     Yobs     Ycalc  Yobs-Ycal    Backg    Bragg     Posr  Intensity   FWHM    Eta
    6.0086     25.12     25.58    -21.96     24.00   18.6627      0.78     128.29  0.9185  0.1113
    6.0187     24.30     25.58    -22.78     24.00   20.3434      0.78      92.11  1.8003  0.1113
    6.0289     24.87     25.59    -22.22     24.00   22.4674      0.78     102.49  1.3660  0.1113
    6.0391     24.78     25.60    -22.32     24.00   28.5059      0.78      33.92  1.4058  0.1113
    6.0492     25.05     25.60    -22.05     24.00   30.0125      0.78      26.86  2.7216  0.1113
    6.0594     24.51     25.61    -22.60     24.00   33.2498      0.78      15.67  2.7216  0.1113
    6.0696     24.70     25.62    -22.42     24.00   17.4000      0.78      91.01  2.7216  0.1113
    6.0797     24.98     25.62    -22.14     24.00   19.9432      0.78     804.79 11.1580  0.1113
    6.0899     24.76     25.63    -22.37     24.00
    6.1001     24.40     25.63    -22.73     24.00
    6.1102     24.12     25.64    -23.02     24.00
    6.1204     24.34     25.65    -22.81     24.00
    6.1306     24.07     25.65    -23.08     24.00
    6.1407     23.88     25.66    -23.28     24.00
    6.1509     24.46     25.67    -22.71     24.00
    6.1611     23.49     25.67    -23.68     24.00
    6.1712     23.95     25.68    -23.23     24.00
    6.1814     24.68     25.69    -22.51     24.00
    6.1915     24.10     25.69    -23.09     24.00
    6.2017     24.59     25.70    -22.61     24.00
    6.2119     25.15     25.71    -22.06     24.00
    6.2220     24.02     25.71    -23.19     24.00
    6.2322     24.43     25.72    -22.79     24.00
    6.2424     25.34     25.73    -21.89     24.00
    6.2525     24.12     25.73    -23.11     24.00
    6.2627     24.09     25.74    -23.15     24.00
    6.2729     24.46     25.75    -22.79     24.00
    6.2830     24.02     25.75    -23.23     24.00
    6.2932     23.81     25.76    -23.45     24.00
    6.3034     24.96     25.77    -22.31     24.00
    6.3135     24.70     25.77    -22.57     24.00
    6.3237     24.44     25.78    -22.84     24.00
    6.3338     23.95     25.79    -23.34     24.00
    6.3440     23.98     25.79    -23.31     24.00
    6.3542     24.74     25.80    -22.56     24.00
    6.3643     23.25     25.81    -24.06     24.00
    6.3745     24.71     25.82    -22.61     24.00
    6.3847     24.29     25.82    -23.03     24.00
    6.3948     24.40     25.83    -22.93     24.00
    6.4050     23.46     25.84    -23.88     24.00
    6.4152     24.23     25.85    -23.12     24.00
    6.4253     24.59     25.85    -22.76     24.00
    6.4355     24.70     25.86    -22.66     24.00
    6.4457     24.30     25.87    -23.07     24.00
    6.4558     23.79     25.87    -23.58     24.00
    6.4660     24.13     25.88    -23.25     24.00
    6.4762     24.60     25.89    -22.79     24.00
    6.4863     25.29     25.90    -22.11     24.00
    6.4965     24.24     25.91    -23.17     24.00
    6.5066     24.68     25.91    -22.73     24.00
    6.5168     23.87     25.92    -23.55     24.00
    6.5270     24.14     25.93    -23.29     24.00
    6.5371     23.07     25.94    -24.37     24.00
    6.5473     24.29     25.94    -23.15     24.00
    6.5575     23.74     25.95    -23.71     24.00
    6.5676     24.41     25.96    -23.05     24.00
    6.5778     23.76     25.97    -23.71     24.00
    6.5880     24.95     25.98    -22.53     24.00
    6.5981     25.18     25.98    -22.30     24.00
    6.6083     24.10     25.99    -23.39     24.00
    6.6185     24.98     26.00    -22.52     24.00
    6.6286     24.46     26.01    -23.05     24.00
    6.6388     24.29     26.02    -23.23     24.00
    6.6489     24.88     26.02    -22.64     24.00
    6.6591     24.36     26.03    -23.17     24.00
    6.6693     25.04     26.04    -22.50     24.00
    6.6794     24.06     26.05    -23.49     24.00
    6.6896     24.38     26.06    -23.18     24.00
    6.6998     24.21     26.07    -23.36     24.00
    6.7099     24.59     26.07    -22.98     24.00
    6.7201     24.57     26.08    -23.01     24.00
    6.7303     24.89     26.09    -22.70     24.00
    6.7404     25.12     26.10    -22.48     24.00
    6.7506     25.82     26.11    -21.79     24.00
    6.7608     25.19     26.12    -22.43     24.00
    6.7709     25.22     26.13    -22.41     24.00
    6.7811     24.23     26.13    -23.40     24.00
    6.7913     24.82     26.14    -22.82     24.00
    6.8014     25.22     26.15    -22.43     24.00
    6.8116     23.48     26.16    -24.18     24.00
    6.8217     25.36     26.17    -22.31     24.00
    6.8319     25.09     26.18    -22.59     24.00
    6.8421     25.10     26.19    -22.59     24.00
    6.8522     24.85     26.20    -22.85     24.00
    6.8624     24.54     26.21    -23.17     24.00
    6.8726     24.45     26.21    -23.26     24.00
    6.8827     24.77     26.22    -22.95     24.00
    6.8929     24.96     26.23    -22.77     24.00
    6.9031     25.14     26.24    -22.60     24.00
    6.9132     25.03     26.25    -22.72     24.00
    6.9234     24.70     26.26    -23.06     24.00
    6.9336     25.18     26.27    -22.59     24.00
    6.9437     24.40     26.28    -23.38     24.00
    6.9539     24.34     26.29    -23.45     24.00
    6.9640     25.74     26.30    -22.06     24.00
    6.9742     25.18     26.31    -22.63     24.00
    6.9844     25.09     26.32    -22.73     24.00
    6.9945     25.22     26.33    -22.61     24.00
    7.0047     25.33     26.34    -22.51     24.00
    7.0149     24.32     26.35    -23.53     24.00
    7.0250     25.30     26.36    -22.56     24.00
    7.0352     25.00     26.37    -22.87     24.00
    7.0454     24.58     26.38    -23.30     24.00
    7.0555     24.70     26.39    -23.19     24.00
    7.0657     25.19     26.40    -22.71     24.00
    7.0759     24.99     26.41    -22.92     24.00
    7.0860     24.78     26.42    -23.14     24.00
    7.0962     24.82     26.43    -23.11     24.00
    7.1064     25.19     26.44    -22.75     24.00
    7.1165     25.27     26.45    -22.68     24.00
    7.1267     25.55     26.46    -22.41     24.00
    7.1368     25.66     26.47    -22.31     24.00
    7.1470     24.96     26.48    -23.02     24.00
    7.1572     25.74     26.49    -22.25     24.00
    7.1673     25.80     26.50    -22.20     24.00
    7.1775     25.75     26.51    -22.26     24.00
    7.1877     25.71     26.52    -22.31     24.00
    7.1978     24.95     26.53    -23.08     24.00
    7.2080     25.80     26.54    -22.24     24.00
    7.2182     25.88     26.55    -22.17     24.00
    7.2283     25.01     26.56    -23.05     24.00
    7.2385     25.43     26.57    -22.64     24.00
    7.2487     26.05     26.58    -22.03     24.00
    7.2588     26.17     26.59    -21.92     24.00
    7.2690     25.62     26.60    -22.48     24.00
    7.2791     25.30     26.62    -22.82     24.00
    7.2893     26.17     26.63    -21.96     24.00
    7.2995     25.77     26.64    -22.37     24.00
    7.3096     25.99     26.65    -22.16     24.00
    7.3198     25.74     26.66    -22.42     24.00
    7.3300     26.07     26.67    -22.10     24.00
    7.3401     25.56     26.68    -22.62     24.00
    7.3503     25.88     26.69    -22.31     24.00
    7.3605     26.45     26.70    -21.75     24.00
    7.3706     25.25     26.72    -22.97     24.00
    7.3808     25.38     26.73    -22.85     24.00
    7.3910     25.72     26.74    -22.52     24.00
    7.4011     25.55     26.75    -22.70     24.00
    7.4113     25.93     26.76    -22.33     24.00
    7.4215     26.71     26.77    -21.56     24.00
    7.4316     26.38     26.79    -21.91     24.00
    7.4418     26.20     26.80    -22.10     24.00
    7.4519     26.32     26.81    -21.99     24.00
    7.4621     26.25     26.82    -22.07     24.00
    7.4723     25.59     26.83    -22.74     24.00
    7.4824     26.14     26.85    -22.21     24.00
    7.4926     26.66     26.86    -21.70     24.00
    7.5028     26.02     26.87    -22.35     24.00
    7.5129     26.68     26.88    -21.70     24.00
    7.5231     26.41     26.89    -21.98     24.00
    7.5333     27.00     26.91    -21.41     24.00
    7.5434     26.37     26.92    -22.05     24.00
    7.5536     27.04     26.93    -21.39     24.00
    7.5638     25.96     26.94    -22.48     24.00
    7.5739     27.02     26.96    -21.44     24.00
    7.5841     26.59     26.97    -21.88     24.00
    7.5942     26.58     26.98    -21.90     24.00
    7.6044     25.93     26.99    -22.56     24.00
    7.6146     27.03     27.01    -21.48     24.00
    7.6247     26.64     27.02    -21.88     24.00
    7.6349     26.75     27.03    -21.78     24.00
    7.6451     27.70     27.04    -20.84     24.00
    7.6552     27.02     27.06    -21.54     24.00
    7.6654     26.97     27.07    -21.60     24.00
    7.6756     26.51     27.08    -22.07     24.00
    7.6857     26.59     27.10    -22.01     24.00
    7.6959     26.43     27.11    -22.18     24.00
    7.7061     26.45     27.12    -22.17     24.00
    7.7162     27.30     27.14    -21.34     24.00
    7.7264     26.16     27.15    -22.49     24.00
    7.7365     26.65     27.16    -22.01     24.00
    7.7467     26.77     27.18    -21.91     24.00
    7.7569     26.52     27.19    -22.17     24.00
    7.7670     26.88     27.20    -21.82     24.00
    7.7772     27.35     27.22    -21.37     24.00
    7.7874     26.54     27.23    -22.19     24.00
    7.7975     27.33     27.24    -21.41     24.00
    7.8077     27.97     27.26    -20.79     24.00
    7.8179     27.04     27.27    -21.73     24.00
    7.8280     27.16     27.29    -21.63     24.00
    7.8382     27.19     27.30    -21.61     24.00
    7.8484     26.77     27.31    -22.04     24.00
    7.8585     27.74     27.33    -21.09     24.00
    7.8687     27.35     27.34    -21.49     24.00
    7.8789     27.37     27.36    -21.49     24.00
    7.8890     27.32     27.37    -21.55     24.00
    7.8992     27.65     27.39    -21.24     24.00
    7.9093     27.63     27.40    -21.27     24.00
    7.9195     27.41     27.42    -21.51     24.00
    7.9297     27.34     27.43    -21.59     24.00
    7.9398     28.26     27.44    -20.68     24.00
    7.9500     27.35     27.46    -21.61     24.00
    7.9602     27.69     27.47    -21.28     24.00
    7.9703     27.77     27.49    -21.22     24.00
    7.9805     27.76     27.50    -21.24     24.00
    7.9907     27.91     27.52    -21.11     24.00
    8.0008     27.80     27.53    -21.23     24.00
    8.0110     27.66     27.55    -21.39     24.00
    8.0212     28.15     27.56    -20.91     24.00
    8.0313     26.78     27.58    -22.30     24.00
    8.0415     28.94     27.59    -20.15     24.00
    8.0516     27.99     27.61    -21.12     24.00
    8.0618     27.70     27.63    -21.43     24.00
    8.0720     28.38     27.64    -20.76     24.00
    8.0821     28.32     27.66    -20.84     24.00
    8.0923     27.42     27.67    -21.75     24.00
    8.1025     27.01     27.69    -22.18     24.00
    8.1126     28.15     27.70    -21.05     24.00
    8.1228     28.21     27.72    -21.01     24.00
    8.1330     28.06     27.74    -21.18     24.00
    8.1431     28.38     27.75    -20.87     24.00
    8.1533     28.29     27.77    -20.98     24.00
    8.1635     28.35     27.78    -20.93     24.00
    8.1736     27.70     27.80    -21.60     24.00
    8.1838     27.59     27.82    -21.73     24.00
    8.1940     27.45     27.83    -21.88     24.00
    8.2041     28.77     27.85    -20.58     24.00
    8.2143     28.01     27.86    -21.35     24.00
    8.2244     27.61     27.88    -21.77     24.00
    8.2346     28.60     27.90    -20.80     24.00
    8.2448     27.98     27.91    -21.43     24.00
    8.2549     28.25     27.93    -21.18     24.00
    8.2651     28.35     27.95    -21.10     24.00
    8.2753     27.74     27.96    -21.72     24.00
    8.2854     28.27     27.98    -21.21     24.00
    8.2956     28.13     28.00    -21.37     24.00
    8.3058     28.51     28.02    -21.01     24.00
    8.3159     28.76     28.03    -20.77     24.00
    8.3261     28.34     28.05    -21.21     24.00
    8.3363     28.11     28.07    -21.46     24.00
    8.3464     28.76     28.08    -20.82     24.00
    8.3566     28.60     28.10    -21.00     24.00
    8.3667     27.72     28.12    -21.90     24.00
    8.3769     28.65     28.14    -20.99     24.00
    8.3871     28.71     28.15    -20.94     24.00
    8.3972     28.31     28.17    -21.36     24.00
    8.4074     28.28     28.19    -21.41     24.00
    8.4176     28.62     28.21    -21.09     24.00
    8.4277     28.70     28.23    -21.03     24.00
    8.4379     28.51     28.24    -21.23     24.00
    8.4481     28.20     28.26    -21.56     24.00
    8.4582     28.16     28.28    -21.62     24.00
    8.4684     28.98     28.30    -20.82     24.00
    8.4786     28.76     28.32    -21.06     24.00
    8.4887     29.35     28.34    -20.49     24.00
    8.4989     29.44     28.35    -20.41     24.00
    8.5091     29.27     28.37    -20.60     24.00
    8.5192     28.73     28.39    -21.16     24.00
    8.5294     29.20     28.41    -20.71     24.00
    8.5395     29.53     28.43    -20.40     24.00
    8.5497     28.54     28.45    -21.41     24.00
    8.5599     29.43     28.47    -20.54     24.00
    8.5700     29.25     28.49    -20.74     24.00
    8.5802     28.99     28.50    -21.01     24.00
    8.5904     29.09     28.52    -20.93     24.00
    8.6005     29.04     28.54    -21.00     24.00
    8.6107     29.76     28.56    -20.30     24.00
    8.6209     28.35     28.58    -21.73     24.00
    8.6310     28.80     28.60    -21.30     24.00
    8.6412     29.44     28.62    -20.68     24.00
    8.6514     29.84     28.64    -20.30     24.00
    8.6615     29.32     28.66    -20.84     24.00
    8.6717     30.34     28.68    -19.84     24.00
    8.6818     29.77     28.70    -20.43     24.00
    8.6920     29.54     28.72    -20.68     24.00
    8.7022     29.04     28.74    -21.20     24.00
    8.7123     30.09     28.76    -20.17     24.00
    8.7225     30.26     28.78    -20.02     24.00
    8.7327     29.97     28.80    -20.33     24.00
    8.7428     29.65     28.82    -20.67     24.00
    8.7530     29.76     28.84    -20.58     24.00
    8.7632     30.24     28.86    -20.12     24.00
    8.7733     30.53     28.88    -19.85     24.00
    8.7835     30.12     28.90    -20.28     24.00
    8.7937     29.71     28.92    -20.71     24.00
    8.8038     29.52     28.94    -20.92     24.00
    8.8140     29.78     28.97    -20.69     24.00
    8.8242     29.22     28.99    -21.27     24.00
    8.8343     30.17     29.01    -20.34     24.00
    8.8445     29.62     29.03    -20.91     24.00
    8.8546     29.53     29.05    -21.02     24.00
    8.8648     29.98     29.07    -20.59     24.00
    8.8750     29.18     29.09    -21.41     24.00
    8.8851     29.56     29.11    -21.05     24.00
    8.8953     30.26     29.14    -20.38     24.00
    8.9055     31.20     29.16    -19.46     24.00
    8.9156     29.45     29.18    -21.23     24.00
    8.9258     30.37     29.20    -20.33     24.00
    8.9360     30.00     29.22    -20.72     24.00
    8.9461     30.32     29.25    -20.43     24.00
    8.9563     29.87     29.27    -20.90     24.00
    8.9665     30.93     29.29    -19.86     24.00
    8.9766     29.81     29.31    -21.00     24.00
    8.9868     30.40     29.33    -20.43     24.00
    8.9969     30.83     29.36    -20.03     24.00
    9.0071     29.73     29.38    -21.15     24.00
    9.0173     31.23     29.40    -19.67     24.00
    9.0274     31.32     29.42    -19.60     24.00
    9.0376     30.74     29.45    -20.21     24.00
    9.0478     30.84     29.47    -20.13     24.00
    9.0579     30.18     29.49    -20.81     24.00
    9.0681     30.30     29.52    -20.72     24.00
    9.0783     30.73     29.54    -20.31     24.00
    9.0884     30.53     29.56    -20.53     24.00
    9.0986     30.21     29.59    -20.88     24.00
    9.1088     31.32     29.61    -19.79     24.00
    9.1189     31.71     29.63    -19.42     24.00
    9.1291     30.81     29.66    -20.35     24.00
    9.1393     31.36     29.68    -19.82     24.00
    9.1494     31.90     29.70    -19.30     24.00
    9.1596     30.20     29.73    -21.03     24.00
    9.1697     30.65     29.75    -20.60     24.00
    9.1799     32.23     29.78    -19.05     24.00
    9.1901     30.29     29.80    -21.01     24.00
    9.2002     31.08     29.82    -20.24     24.00
    9.2104     31.65     29.85    -19.70     24.00
    9.2206     30.13     29.87    -21.24     24.00
    9.2307     31.41     29.90    -19.99     24.00
    9.2409     30.76     29.92    -20.66     24.00
    9.2511     30.03     29.95    -21.42     24.00
    9.2612     31.20     29.97    -20.27     24.00
    9.2714     30.85     30.00    -20.65     24.00
    9.2816     31.75     30.02    -19.77     24.00
    9.2917     31.00     30.05    -20.55     24.00
    9.3019     31.32     30.07    -20.25     24.00
    9.3120     30.59     30.10    -21.01     24.00
    9.3222     31.64     30.12    -19.98     24.00
    9.3324     31.59     30.15    -20.06     24.00
    9.3425     30.70     30.17    -20.97     24.00
    9.3527     30.87     30.20    -20.83     24.00
    9.3629     31.56     30.23    -20.17     24.00
    9.3730     30.04     30.25    -21.71     24.00
    9.3832     32.05     30.28    -19.73     24.00
    9.3934     31.31     30.30    -20.49     24.00
    9.4035     31.27     30.33    -20.56     24.00
    9.4137     31.16     30.36    -20.70     24.00
    9.4239     31.64     30.38    -20.24     24.00
    9.4340     31.51     30.41    -20.40     24.00
    9.4442     31.45     30.43    -20.48     24.00
    9.4544     32.80     30.46    -19.16     24.00
    9.4645     31.67     30.49    -20.32     24.00
    9.4747     32.04     30.52    -19.98     24.00
    9.4848     31.60     30.54    -20.44     24.00
    9.4950     31.67     30.57    -20.40     24.00
    9.5052     31.80     30.60    -20.30     24.00
    9.5153     30.83     30.62    -21.29     24.00
    9.5255     31.68     30.65    -20.47     24.00
    9.5357     31.82     30.68    -20.36     24.00
    9.5458     32.10     30.71    -20.11     24.00
    9.5560     31.53     30.73    -20.70     24.00
    9.5662     32.17     30.76    -20.09     24.00
    9.5763     31.65     30.79    -20.64     24.00
    9.5865     32.61     30.82    -19.71     24.00
    9.5967     32.48     30.84    -19.86     24.00
    9.6068     31.77     30.87    -20.60     24.00
    9.6170     31.82     30.90    -20.58     24.00
    9.6271     31.70     30.93    -20.73     24.00
    9.6373     32.05     30.96    -20.41     24.00
    9.6475     31.70     30.99    -20.79     24.00
    9.6576     32.25     31.01    -20.26     24.00
    9.6678     32.79     31.04    -19.75     24.00
    9.6780     31.98     31.07    -20.59     24.00
    9.6881     31.96     31.10    -20.64     24.00
    9.6983     31.51     31.13    -21.12     24.00
    9.7085     31.61     31.16    -21.05     24.00
    9.7186     32.43     31.19    -20.26     24.00
    9.7288     31.73     31.22    -20.99     24.00
    9.7390     32.23     31.25    -20.52     24.00
    9.7491     32.53     31.28    -20.25     24.00
    9.7593     31.92     31.31    -20.89     24.00
    9.7694     32.24     31.34    -20.60     24.00
    9.7796     33.28     31.37    -19.59     24.00
    9.7898     32.28     31.40    -20.62     24.00
    9.7999     32.28     31.43    -20.65     24.00
    9.8101     32.93     31.46    -20.03     24.00
    9.8203     31.98     31.49    -21.01     24.00
    9.8304     31.91     31.52    -21.11     24.00
    9.8406     33.52     31.55    -19.53     24.00
    9.8508     32.07     31.58    -21.01     24.00
    9.8609     31.29     31.61    -21.82     24.00
    9.8711     32.72     31.64    -20.42     24.00
    9.8813     32.16     31.67    -21.01     24.00
    9.8914     32.45     31.70    -20.75     24.00
    9.9016     33.48     31.73    -19.75     24.00
    9.9118     33.61     31.76    -19.65     24.00
    9.9219     32.73     31.80    -20.57     24.00
    9.9321     33.02     31.83    -20.31     24.00
    9.9422     33.66     31.86    -19.70     24.00
    9.9524     32.75     31.89    -20.64     24.00
    9.9626     33.35     31.92    -20.07     24.00
    9.9727     32.64     31.95    -20.81     24.00
    9.9829     32.91     31.99    -20.58     24.00
    9.9931     32.18     32.02    -21.34     24.00
   10.0032     32.40     32.05    -21.15     24.00
   10.0134     33.02     32.08    -20.56     24.00
   10.0236     32.57     32.12    -21.05     24.00
   10.0337     31.95     32.15    -21.70     24.00
   10.0439     33.51     32.18    -20.17     24.00
   10.0541     33.55     32.21    -20.16     24.00
   10.0642     33.34     32.25    -20.41     24.00
   10.0744     33.84     32.28    -19.94     24.00
   10.0845     33.52     32.31    -20.29     24.00
   10.0947     34.07     32.35    -19.78     24.00
   10.1049     33.01     32.38    -20.87     24.00
   10.1150     34.20     32.41    -19.71     24.00
   10.1252     33.12     32.45    -20.83     24.00
   10.1354     33.81     32.48    -20.17     24.00
   10.1455     33.95     32.51    -20.06     24.00
   10.1557     33.59     32.55    -20.46     24.00
   10.1659     33.07     32.58    -21.01     24.00
   10.1760     34.51     32.61    -19.60     24.00
   10.1862     33.58     32.65    -20.57     24.00
   10.1964     33.51     32.68    -20.67     24.00
   10.2065     34.18     32.72    -20.04     24.00
   10.2167     33.91     32.75    -20.34     24.00
   10.2269     33.29     32.79    -21.00     24.00
   10.2370     34.09     32.82    -20.23     24.00
   10.2472     33.72     32.86    -20.64     24.00
   10.2573     33.55     32.89    -20.84     24.00
   10.2675     33.26     32.93    -21.17     24.00
   10.2777     33.50     32.96    -20.96     24.00
   10.2878     34.04     33.00    -20.46     24.00
   10.2980     33.52     33.03    -21.01     24.00
   10.3082     33.79     33.07    -20.78     24.00
   10.3183     34.45     33.10    -20.15     24.00
   10.3285     34.50     33.14    -20.14     24.00
   10.3387     33.75     33.18    -20.93     24.00
   10.3488     33.45     33.21    -21.26     24.00
   10.3590     33.55     33.25    -21.20     24.00
   10.3692     33.52     33.29    -21.27     24.00
   10.3793     33.40     33.32    -21.42     24.00
   10.3895     33.20     33.36    -21.66     24.00
   10.3996     34.23     33.39    -20.66     24.00
   10.4098     33.97     33.43    -20.96     24.00
   10.4200     34.96     33.47    -20.01     24.00
   10.4301     33.38     33.50    -21.62     24.00
   10.4403     33.75     33.54    -21.29     24.00
   10.4505     35.37     33.58    -19.71     24.00
   10.4606     34.10     33.62    -21.02     24.00
   10.4708     34.73     33.65    -20.42     24.00
   10.4810     34.16     33.69    -21.03     24.00
   10.4911     33.79     33.73    -21.44     24.00
   10.5013     33.83     33.77    -21.44     24.00
   10.5115     34.30     33.81    -21.01     24.00
   10.5216     34.75     33.84    -20.59     24.00
   10.5318     34.57     33.88    -20.81     24.00
   10.5420     34.29     33.92    -21.13     24.00
   10.5521     34.99     33.96    -20.47     24.00
   10.5623     34.90     34.00    -20.60     24.00
   10.5724     34.58     34.04    -20.96     24.00
   10.5826     35.18     34.07    -20.39     24.00
   10.5928     34.80     34.11    -20.81     24.00
   10.6029     34.69     34.15    -20.96     24.00
   10.6131     34.43     34.19    -21.26     24.00
   10.6233     35.43     34.23    -20.30     24.00
   10.6334     34.57     34.27    -21.20     24.00
   10.6436     35.60     34.31    -20.21     24.00
   10.6538     34.48     34.35    -21.37     24.00
   10.6639     34.43     34.39    -21.46     24.00
   10.6741     34.07     34.43    -21.86     24.00
   10.6843     35.85     34.47    -20.12     24.00
   10.6944     34.99     34.51    -21.02     24.00
   10.7046     34.69     34.55    -21.36     24.00
   10.7147     35.56     34.59    -20.53     24.00
   10.7249     35.31     34.63    -20.82     24.00
   10.7351     34.46     34.67    -21.71     24.00
   10.7452     34.87     34.71    -21.34     24.00
   10.7554     35.00     34.75    -21.25     24.00
   10.7656     35.52     34.79    -20.77     24.00
   10.7757     34.08     34.83    -22.25     24.00
   10.7859     34.88     34.88    -21.50     24.00
   10.7961     34.93     34.92    -21.49     24.00
   10.8062     35.19     34.96    -21.27     24.00
   10.8164     35.82     35.00    -20.68     24.00
   10.8266     35.51     35.04    -21.03     24.00
   10.8367     36.41     35.08    -20.17     24.00
   10.8469     36.22     35.13    -20.41     24.00
   10.8571     36.18     35.17    -20.49     24.00
   10.8672     35.62     35.21    -21.09     24.00
   10.8774     36.07     35.25    -20.68     24.00
   10.8875     35.05     35.29    -21.74     24.00
   10.8977     34.78     35.34    -22.06     24.00
   10.9079     35.90     35.38    -20.98     24.00
   10.9180     35.00     35.42    -21.92     24.00
   10.9282     35.75     35.47    -21.22     24.00
   10.9384     36.41     35.51    -20.60     24.00
   10.9485     35.40     35.55    -21.65     24.00
   10.9587     36.21     35.60    -20.89     24.00
   10.9689     35.59     35.64    -21.55     24.00
   10.9790     36.21     35.68    -20.97     24.00
   10.9892     36.71     35.73    -20.52     24.00
   10.9994     35.88     35.77    -21.39     24.00
   11.0095     36.53     35.81    -20.78     24.00
   11.0197     35.46     35.86    -21.90     24.00
   11.0298     36.94     35.90    -20.46     24.00
   11.0400     35.64     35.95    -21.81     24.00
   11.0502     35.21     35.99    -22.28     24.00
   11.0603     35.95     36.04    -21.59     24.00
   11.0705     36.29     36.08    -21.29     24.00
   11.0807     35.90     36.13    -21.73     24.00
   11.0908     36.38     36.17    -21.29     24.00
   11.1010     36.42     36.22    -21.30     24.00
   11.1112     36.51     36.26    -21.25     24.00
   11.1213     36.64     36.31    -21.17     24.00
   11.1315     36.31     36.35    -21.54     24.00
   11.1417     35.99     36.40    -21.91     24.00
   11.1518     36.75     36.44    -21.19     24.00
   11.1620     36.62     36.49    -21.37     24.00
   11.1722     36.90     36.54    -21.14     24.00
   11.1823     36.70     36.58    -21.38     24.00
   11.1925     36.26     36.63    -21.87     24.00
   11.2026     37.37     36.67    -20.80     24.00
   11.2128     36.91     36.72    -21.31     24.00
   11.2230     36.31     36.77    -21.96     24.00
   11.2331     36.77     36.81    -21.54     24.00
   11.2433     37.18     36.86    -21.18     24.00
   11.2535     35.73     36.91    -22.68     24.00
   11.2636     36.66     36.96    -21.80     24.00
   11.2738     37.43     37.00    -21.07     24.00
   11.2840     36.23     37.05    -22.32     24.00
   11.2941     37.29     37.10    -21.31     24.00
   11.3043     37.51     37.15    -21.14     24.00
   11.3145     36.25     37.19    -22.44     24.00
   11.3246     37.94     37.24    -20.80     24.00
   11.3348     37.45     37.29    -21.34     24.00
   11.3449     37.70     37.34    -21.14     24.00
   11.3551     36.88     37.39    -22.01     24.00
   11.3653     36.17     37.43    -22.76     24.00
   11.3754     36.71     37.48    -22.27     24.00
   11.3856     37.71     37.53    -21.32     24.00
   11.3958     37.20     37.58    -21.88     24.00
   11.4059     37.04     37.63    -22.09     24.00
   11.4161     37.52     37.68    -21.66     24.00
   11.4263     38.01     37.73    -21.22     24.00
   11.4364     37.49     37.78    -21.79     24.00
   11.4466     37.26     37.83    -22.07     24.00
   11.4568     37.84     37.88    -21.54     24.00
   11.4669     38.43     37.93    -21.00     24.00
   11.4771     38.98     37.98    -20.50     24.00
   11.4873     39.05     38.03    -20.48     24.00
   11.4974     37.85     38.08    -21.73     24.00
   11.5076     38.49     38.13    -21.14     24.00
   11.5177     37.19     38.18    -22.49     24.00
   11.5279     37.83     38.23    -21.90     24.00
   11.5381     38.18     38.28    -21.60     24.00
   11.5482     37.73     38.33    -22.10     24.00
   11.5584     37.49     38.38    -22.39     24.00
   11.5686     38.56     38.43    -21.37     24.00
   11.5787     38.27     38.48    -21.71     24.00
   11.5889     37.45     38.53    -22.58     24.00
   11.5991     37.84     38.59    -22.25     24.00
   11.6092     37.99     38.64    -22.15     24.00
   11.6194     38.00     38.69    -22.19     24.00
   11.6296     38.52     38.74    -21.72     24.00
   11.6397     38.68     38.79    -21.61     24.00
   11.6499     38.28     38.85    -22.07     24.00
   11.6600     38.97     38.90    -21.43     24.00
   11.6702     37.34     38.95    -23.11     24.00
   11.6804     39.05     39.00    -21.45     24.00
   11.6905     38.34     39.06    -22.22     24.00
   11.7007     38.07     39.11    -22.54     24.00
   11.7109     38.01     39.16    -22.65     24.00
   11.7210     38.35     39.21    -22.36     24.00
   11.7312     38.71     39.27    -22.06     24.00
   11.7414     38.57     39.32    -22.25     24.00
   11.7515     38.57     39.37    -22.30     24.00
   11.7617     37.75     39.43    -23.18     24.00
   11.7719     39.43     39.48    -21.55     24.00
   11.7820     38.04     39.54    -23.00     24.00
   11.7922     38.49     39.59    -22.60     24.00
   11.8023     39.78     39.64    -21.36     24.00
   11.8125     38.95     39.70    -22.25     24.00
   11.8227     39.75     39.75    -21.50     24.00
   11.8328     38.96     39.81    -22.35     24.00
   11.8430     39.60     39.86    -21.76     24.00
   11.8532     38.25     39.92    -23.17     24.00
   11.8633     39.41     39.97    -22.06     24.00
   11.8735     39.01     40.03    -22.52     24.00
   11.8837     39.59     40.08    -21.99     24.00
   11.8938     38.75     40.14    -22.89     24.00
   11.9040     39.63     40.19    -22.06     24.00
   11.9142     39.41     40.25    -22.34     24.00
   11.9243     39.30     40.30    -22.50     24.00
   11.9345     39.52     40.36    -22.34     24.00
   11.9447     39.43     40.42    -22.49     24.00
   11.9548     39.45     40.47    -22.52     24.00
   11.9650     39.30     40.53    -22.73     24.00
   11.9751     38.54     40.59    -23.55     24.00
   11.9853     40.91     40.64    -21.23     24.00
   11.9955     40.85     40.70    -21.35     24.00
   12.0056     39.51     40.76    -22.75     24.00
   12.0158     40.10     40.81    -22.21     24.00
   12.0260     39.62     40.87    -22.75     24.00
   12.0361     39.51     40.93    -22.92     24.00
   12.0463     39.35     40.98    -23.13     24.00
   12.0565     40.60     41.04    -21.94     24.00
   12.0666     39.88     41.10    -22.72     24.00
   12.0768     39.49     41.16    -23.17     24.00
   12.0870     41.12     41.22    -21.60     24.00
   12.0971     40.47     41.27    -22.30     24.00
   12.1073     40.49     41.33    -22.34     24.00
   12.1174     40.76     41.39    -22.13     24.00
   12.1276     41.19     41.45    -21.76     24.00
   12.1378     41.70     41.51    -21.31     24.00
   12.1479     41.18     41.57    -21.89     24.00
   12.1581     40.60     41.62    -22.52     24.00
   12.1683     40.79     41.68    -22.39     24.00
   12.1784     41.24     41.74    -22.00     24.00
   12.1886     40.30     41.80    -23.00     24.00
   12.1988     40.99     41.86    -22.37     24.00
   12.2089     41.11     41.92    -22.31     24.00
   12.2191     40.75     41.98    -22.73     24.00
   12.2293     40.76     42.04    -22.78     24.00
   12.2394     41.35     42.10    -22.25     24.00
   12.2496     40.77     42.16    -22.89     24.00
   12.2598     41.29     42.22    -22.43     24.00
   12.2699     40.94     42.28    -22.84     24.00
   12.2801     41.54     42.34    -22.30     24.00
   12.2902     42.47     42.40    -21.43     24.00
   12.3004     41.70     42.46    -22.26     24.00
   12.3106     41.76     42.52    -22.26     24.00
   12.3207     42.17     42.58    -21.91     24.00
   12.3309     42.30     42.65    -21.85     24.00
   12.3411     41.62     42.71    -22.59     24.00
   12.3512     41.36     42.77    -22.91     24.00
   12.3614     41.22     42.83    -23.11     24.00
   12.3716     42.20     42.89    -22.19     24.00
   12.3817     41.59     42.95    -22.86     24.00
   12.3919     41.88     43.02    -22.64     24.00
   12.4021     41.82     43.08    -22.76     24.00
   12.4122     40.16     43.14    -24.48     24.00
   12.4224     42.09     43.20    -22.61     24.00
   12.4325     42.71     43.26    -22.05     24.00
   12.4427     41.93     43.33    -22.90     24.00
   12.4529     42.75     43.39    -22.14     24.00
   12.4630     41.77     43.45    -23.18     24.00
   12.4732     41.98     43.52    -23.04     24.00
   12.4834     42.76     43.58    -22.32     24.00
   12.4935     43.16     43.64    -21.98     24.00
   12.5037     42.54     43.71    -22.67     24.00
   12.5139     42.54     43.77    -22.73     24.00
   12.5240     43.51     43.83    -21.82     24.00
   12.5342     43.32     43.90    -22.08     24.00
   12.5444     43.23     43.96    -22.23     24.00
   12.5545     43.65     44.02    -21.87     24.00
   12.5647     43.91     44.09    -21.68     24.00
   12.5749     42.91     44.15    -22.74     24.00
   12.5850     42.49     44.22    -23.23     24.00
   12.5952     42.67     44.28    -23.11     24.00
   12.6053     44.68     44.35    -21.17     24.00
   12.6155     43.84     44.41    -22.07     24.00
   12.6257     43.45     44.48    -22.53     24.00
   12.6358     44.77     44.54    -21.27     24.00
   12.6460     42.71     44.61    -23.40     24.00
   12.6562     43.70     44.67    -22.47     24.00
   12.6663     44.02     44.74    -22.22     24.00
   12.6765     43.41     44.80    -22.89     24.00
   12.6867     43.95     44.87    -22.42     24.00
   12.6968     43.51     44.94    -22.93     24.00
   12.7070     43.77     45.00    -22.73     24.00
   12.7172     43.51     45.07    -23.06     24.00
   12.7273     44.04     45.13    -22.59     24.00
   12.7375     44.43     45.20    -22.27     24.00
   12.7476     44.76     45.27    -22.01     24.00
   12.7578     44.25     45.34    -22.59     24.00
   12.7680     44.32     45.40    -22.58     24.00
   12.7781     44.98     45.47    -21.99     24.00
   12.7883     44.59     45.54    -22.45     24.00
   12.7985     44.71     45.60    -22.39     24.00
   12.8086     44.70     45.67    -22.47     24.00
   12.8188     44.57     45.74    -22.67     24.00
   12.8290     44.11     45.81    -23.20     24.00
   12.8391     44.31     45.87    -23.06     24.00
   12.8493     44.40     45.94    -23.04     24.00
   12.8595     45.21     46.01    -22.30     24.00
   12.8696     45.81     46.08    -21.77     24.00
   12.8798     45.14     46.15    -22.51     24.00
   12.8900     45.71     46.22    -22.01     24.00
   12.9001     45.46     46.29    -22.33     24.00
   12.9103     45.94     46.35    -21.91     24.00
   12.9204     45.29     46.42    -22.63     24.00
   12.9306     45.71     46.49    -22.28     24.00
   12.9408     45.44     46.56    -22.62     24.00
   12.9509     45.90     46.63    -22.23     24.00
   12.9611     44.74     46.70    -23.46     24.00
   12.9713     46.37     46.77    -21.90     24.00
   12.9814     46.49     46.84    -21.85     24.00
   12.9916     45.46     46.91    -22.95     24.00
   13.0018     46.12     46.98    -22.36     24.00
   13.0119     46.62     47.05    -21.93     24.00
   13.0221     46.42     47.12    -22.20     24.00
   13.0323     46.03     47.19    -22.66     24.00
   13.0424     46.10     47.26    -22.66     24.00
   13.0526     46.48     47.33    -22.35     24.00
   13.0627     45.29     47.40    -23.61     24.00
   13.0729     46.25     47.48    -22.73     24.00
   13.0831     47.40     47.55    -21.65     24.00
   13.0932     46.81     47.62    -22.31     24.00
   13.1034     47.73     47.69    -21.46     24.00
   13.1136     47.40     47.76    -21.86     24.00
   13.1237     47.00     47.83    -22.33     24.00
   13.1339     47.56     47.91    -21.85     24.00
   13.1441     47.69     47.98    -21.79     24.00
   13.1542     46.71     48.05    -22.84     24.00
   13.1644     46.34     48.12    -23.28     24.00
   13.1746     47.07     48.20    -22.63     24.00
   13.1847     46.69     48.27    -23.08     24.00
   13.1949     48.93     48.34    -20.91     24.00
   13.2051     47.28     48.42    -22.64     24.00
   13.2152     48.42     48.49    -21.57     24.00
   13.2254     48.30     48.56    -21.76     24.00
   13.2355     48.07     48.64    -22.07     24.00
   13.2457     47.60     48.71    -22.61     24.00
   13.2559     46.99     48.78    -23.29     24.00
   13.2660     48.25     48.86    -22.11     24.00
   13.2762     47.74     48.93    -22.69     24.00
   13.2864     47.80     49.01    -22.71     24.00
   13.2965     48.07     49.08    -22.51     24.00
   13.3067     48.09     49.16    -22.57     24.00
   13.3169     49.79     49.23    -20.94     24.00
   13.3270     49.82     49.31    -20.99     24.00
   13.3372     48.51     49.38    -22.37     24.00
   13.3474     48.30     49.46    -22.66     24.00
   13.3575     49.40     49.53    -21.63     24.00
   13.3677     48.09     49.61    -23.02     24.00
   13.3778     49.78     49.68    -21.40     24.00
   13.3880     49.45     49.76    -21.81     24.00
   13.3982     49.45     49.84    -21.89     24.00
   13.4083     49.32     49.91    -22.09     24.00
   13.4185     48.49     49.99    -23.00     24.00
   13.4287     49.15     50.07    -22.42     24.00
   13.4388     49.80     50.14    -21.84     24.00
   13.4490     49.37     50.22    -22.35     24.00
   13.4592     50.10     50.30    -21.70     24.00
   13.4693     49.48     50.38    -22.40     24.00
   13.4795     49.26     50.45    -22.69     24.00
   13.4897     49.55     50.53    -22.48     24.00
   13.4998     49.59     50.61    -22.52     24.00
   13.5100     50.33     50.69    -21.86     24.00
   13.5201     50.76     50.77    -21.51     24.00
   13.5303     49.77     50.84    -22.57     24.00
   13.5405     50.04     50.92    -22.38     24.00
   13.5506     49.90     51.00    -22.60     24.00
   13.5608     50.77     51.08    -21.81     24.00
   13.5710     50.50     51.16    -22.16     24.00
   13.5811     50.82     51.24    -21.92     24.00
   13.5913     49.62     51.32    -23.20     24.00
   13.6015     51.02     51.40    -21.88     24.00
   13.6116     51.43     51.48    -21.55     24.00
   13.6218     51.66     51.56    -21.40     24.00
   13.6320     51.90     51.64    -21.24     24.00
   13.6421     51.32     51.72    -21.90     24.00
   13.6523     51.47     51.80    -21.83     24.00
   13.6625     50.76     51.89    -22.63     24.00
   13.6726     52.20     51.97    -21.27     24.00
   13.6828     51.01     52.05    -22.54     24.00
   13.6929     51.05     52.13    -22.58     24.00
   13.7031     52.23     52.21    -21.48     24.00
   13.7133     53.58     52.30    -20.22     24.00
   13.7234     52.34     52.38    -21.54     24.00
   13.7336     52.17     52.46    -21.79     24.00
   13.7438     52.15     52.54    -21.89     24.00
   13.7539     52.25     52.63    -21.88     24.00
   13.7641     53.12     52.71    -21.09     24.00
   13.7743     51.96     52.79    -22.33     24.00
   13.7844     52.74     52.88    -21.64     24.00
   13.7946     52.10     52.96    -22.36     24.00
   13.8048     53.15     53.05    -21.40     24.00
   13.8149     52.76     53.13    -21.87     24.00
   13.8251     53.12     53.22    -21.60     24.00
   13.8352     51.23     53.30    -23.57     24.00
   13.8454     53.10     53.39    -21.79     24.00
   13.8556     53.66     53.47    -21.31     24.00
   13.8657     53.45     53.56    -21.61     24.00
   13.8759     52.98     53.65    -22.17     24.00
   13.8861     53.98     53.73    -21.25     24.00
   13.8962     53.83     53.82    -21.49     24.00
   13.9064     53.41     53.91    -22.00     24.00
   13.9166     54.02     53.99    -21.47     24.00
   13.9267     54.48     54.08    -21.10     24.00
   13.9369     54.16     54.17    -21.51     24.00
   13.9471     54.46     54.26    -21.30     24.00
   13.9572     54.55     54.35    -21.30     24.00
   13.9674     54.74     54.44    -21.20     24.00
   13.9776     55.07     54.53    -20.96     24.00
   13.9877     54.93     54.62    -21.19     24.00
   13.9979     55.01     54.71    -21.20     24.00
   14.0080     55.09     54.79    -21.20     24.00
   14.0182     54.36     54.89    -22.03     24.00
   14.0284     54.65     54.98    -21.83     24.00
   14.0385     56.70     55.07    -19.87     24.00
   14.0487     55.92     55.16    -20.74     24.00
   14.0589     55.21     55.25    -21.54     24.00
   14.0690     55.73     55.34    -21.11     24.00
   14.0792     55.85     55.44    -21.09     24.00
   14.0894     55.48     55.53    -21.55     24.00
   14.0995     55.79     55.62    -21.33     24.00
   14.1097     55.95     55.72    -21.27     24.00
   14.1199     56.07     55.81    -21.24     24.00
   14.1300     55.79     55.90    -21.61     24.00
   14.1402     56.57     56.00    -20.93     24.00
   14.1503     57.20     56.09    -20.39     24.00
   14.1605     55.49     56.19    -22.20     24.00
   14.1707     57.99     56.28    -19.79     24.00
   14.1808     56.08     56.38    -21.80     24.00
   14.1910     57.95     56.48    -20.03     24.00
   14.2012     55.91     56.57    -22.16     24.00
   14.2113     57.09     56.67    -21.08     24.00
   14.2215     56.87     56.77    -21.40     24.00
   14.2317     57.79     56.87    -20.58     24.00
   14.2418     57.20     56.97    -21.27     24.00
   14.2520     58.49     57.07    -20.08     24.00
   14.2622     57.52     57.16    -21.14     24.00
   14.2723     57.79     57.26    -20.97     24.00
   14.2825     58.37     57.36    -20.49     24.00
   14.2927     58.31     57.47    -20.66     24.00
   14.3028     58.69     57.57    -20.38     24.00
   14.3130     59.06     57.67    -20.11     24.00
   14.3231     58.01     57.77    -21.26     24.00
   14.3333     59.01     57.87    -20.36     24.00
   14.3435     58.40     57.98    -21.08     24.00
   14.3536     58.53     58.08    -21.05     24.00
   14.3638     58.88     58.18    -20.80     24.00
   14.3740     58.90     58.29    -20.89     24.00
   14.3841     58.79     58.39    -21.10     24.00
   14.3943     59.37     58.50    -20.63     24.00
   14.4045     58.99     58.61    -21.12     24.00
   14.4146     60.70     58.71    -19.51     24.00
   14.4248     58.63     58.82    -21.69     24.00
   14.4350     60.49     58.93    -19.94     24.00
   14.4451     58.77     59.03    -21.76     24.00
   14.4553     61.24     59.14    -19.40     24.00
   14.4654     60.32     59.25    -20.43     24.00
   14.4756     59.65     59.36    -21.21     24.00
   14.4858     61.07     59.47    -19.90     24.00
   14.4959     60.98     59.58    -20.10     24.00
   14.5061     61.37     59.69    -19.82     24.00
   14.5163     61.30     59.81    -20.01     24.00
   14.5264     61.77     59.92    -19.65     24.00
   14.5366     60.98     60.03    -20.55     24.00
   14.5468     60.68     60.15    -20.97     24.00
   14.5569     62.04     60.26    -19.72     24.00
   14.5671     63.07     60.37    -18.80     24.00
   14.5773     61.18     60.49    -20.81     24.00
   14.5874     62.79     60.61    -19.32     24.00
   14.5976     62.05     60.72    -20.17     24.00
   14.6078     62.84     60.84    -19.50     24.00
   14.6179     62.99     60.96    -19.47     24.00
   14.6281     62.56     61.08    -20.02     24.00
   14.6382     62.93     61.20    -19.77     24.00
   14.6484     63.30     61.32    -19.52     24.00
   14.6586     64.21     61.44    -18.73     24.00
   14.6687     62.27     61.56    -20.79     24.00
   14.6789     63.20     61.68    -19.98     24.00
   14.6891     62.55     61.80    -20.75     24.00
   14.6992     62.74     61.93    -20.69     24.00
   14.7094     63.46     62.05    -20.09     24.00
   14.7196     61.85     62.18    -21.83     24.00
   14.7297     63.57     62.30    -20.23     24.00
   14.7399     64.35     62.43    -19.58     24.00
   14.7501     62.22     62.56    -21.84     24.00
   14.7602     64.61     62.68    -19.57     24.00
   14.7704     64.07     62.81    -20.24     24.00
   14.7805     63.91     62.94    -20.53     24.00
   14.7907     63.76     63.07    -20.81     24.00
   14.8009     65.21     63.20    -19.49     24.00
   14.8110     64.66     63.33    -20.17     24.00
   14.8212     64.75     63.47    -20.22     24.00
   14.8314     65.18     63.60    -19.92     24.00
   14.8415     64.71     63.73    -20.52     24.00
   14.8517     64.18     63.87    -21.19     24.00
   14.8619     65.90     64.00    -19.60     24.00
   14.8720     65.80     64.14    -19.84     24.00
   14.8822     65.43     64.28    -20.35     24.00
   14.8924     67.00     64.41    -18.91     24.00
   14.9025     66.62     64.55    -19.43     24.00
   14.9127     65.97     64.69    -20.22     24.00
   14.9229     67.26     64.83    -19.07     24.00
   14.9330     66.87     64.97    -19.60     24.00
   14.9432     65.23     65.12    -21.39     24.00
   14.9533     65.94     65.26    -20.82     24.00
   14.9635     66.77     65.40    -20.13     24.00
   14.9737     67.74     65.55    -19.31     24.00
   14.9838     66.69     65.69    -20.50     24.00
   14.9940     68.13     65.84    -19.21     24.00
   15.0042     68.59     65.99    -18.90     24.00
   15.0143     68.67     66.14    -18.97     24.00
   15.0245     68.29     66.29    -19.50     24.00
   15.0347     67.93     66.44    -20.01     24.00
   15.0448     67.51     66.59    -20.58     24.00
   15.0550     68.90     66.74    -19.34     24.00
   15.0652     67.99     66.89    -20.40     24.00
   15.0753     67.72     67.04    -20.82     24.00
   15.0855     68.71     67.20    -19.99     24.00
   15.0956     69.71     67.35    -19.14     24.00
   15.1058     69.09     67.51    -19.92     24.00
   15.1160     70.12     67.67    -19.05     24.00
   15.1261     69.80     67.83    -19.53     24.00
   15.1363     69.79     67.99    -19.70     24.00
   15.1465     67.99     68.15    -21.66     24.00
   15.1566     69.71     68.31    -20.10     24.00
   15.1668     70.38     68.47    -19.59     24.00
   15.1770     68.71     68.63    -21.42     24.00
   15.1871     70.15     68.80    -20.15     24.00
   15.1973     69.91     68.96    -20.55     24.00
   15.2075     71.13     69.13    -19.50     24.00
   15.2176     70.62     69.30    -20.18     24.00
   15.2278     70.59     69.47    -20.38     24.00
   15.2380     70.74     69.63    -20.39     24.00
   15.2481     70.19     69.80    -21.11     24.00
   15.2583     71.64     69.98    -19.84     24.00
   15.2684     71.60     70.15    -20.05     24.00
   15.2786     71.84     70.32    -19.98     24.00
   15.2888     71.93     70.50    -20.07     24.00
   15.2989     72.07     70.67    -20.10     24.00
   15.3091     72.61     70.85    -19.74     24.00
   15.3193     70.93     71.02    -21.59     24.00
   15.3294     71.29     71.20    -21.41     24.00
   15.3396     71.10     71.38    -21.78     24.00
   15.3498     74.30     71.56    -18.76     24.00
   15.3599     72.53     71.74    -20.71     24.00
   15.3701     71.43     71.92    -21.99     24.00
   15.3803     73.00     72.11    -20.61     24.00
   15.3904     73.94     72.29    -19.85     24.00
   15.4006     72.87     72.48    -21.11     24.00
   15.4107     73.34     72.66    -20.82     24.00
   15.4209     73.75     72.85    -20.60     24.00
   15.4311     73.90     73.04    -20.64     24.00
   15.4412     73.81     73.23    -20.92     24.00
   15.4514     75.38     73.42    -19.54     24.00
   15.4616     73.49     73.61    -21.62     24.00
   15.4717     74.92     73.80    -20.38     24.00
   15.4819     74.13     74.00    -21.37     24.00
   15.4921     75.53     74.19    -20.16     24.00
   15.5022     75.35     74.39    -20.54     24.00
   15.5124     75.52     74.58    -20.56     24.00
   15.5226     75.04     74.78    -21.24     24.00
   15.5327     75.37     74.98    -21.11     24.00
   15.5429     76.07     75.18    -20.61     24.00
   15.5530     76.46     75.38    -20.42     24.00
   15.5632     76.57     75.58    -20.51     24.00
   15.5734     75.15     75.78    -22.13     24.00
   15.5835     76.83     75.98    -20.65     24.00
   15.5937     76.48     76.19    -21.21     24.00
   15.6039     76.23     76.40    -21.67     24.00
   15.6140     76.32     76.60    -21.78     24.00
   15.6242     78.39     76.81    -19.92     24.00
   15.6344     78.20     77.02    -20.32     24.00
   15.6445     77.96     77.23    -20.77     24.00
   15.6547     77.91     77.44    -21.03     24.00
   15.6649     76.60     77.65    -22.55     24.00
   15.6750     78.60     77.86    -20.76     24.00
   15.6852     78.99     78.07    -20.58     24.00
   15.6954     79.63     78.29    -20.16     24.00
   15.7055     78.98     78.50    -21.02     24.00
   15.7157     78.70     78.72    -21.52     24.00
   15.7258     79.04     78.93    -21.39     24.00
   15.7360     80.38     79.15    -20.27     24.00
   15.7462     80.18     79.37    -20.69     24.00
   15.7563     78.45     79.59    -22.64     24.00
   15.7665     81.57     79.81    -19.74     24.00
   15.7767     80.67     80.03    -20.86     24.00
   15.7868     78.87     80.25    -22.88     24.00
   15.7970     81.12     80.47    -20.85     24.00
   15.8072     81.88     80.70    -20.32     24.00
   15.8173     79.71     80.92    -22.71     24.00
   15.8275     80.59     81.14    -22.05     24.00
   15.8377     81.87     81.37    -21.00     24.00
   15.8478     82.24     81.59    -20.85     24.00
   15.8580     81.09     81.82    -22.23     24.00
   15.8681     82.42     82.05    -21.13     24.00
   15.8783     80.93     82.28    -22.85     24.00
   15.8885     82.54     82.51    -21.47     24.00
   15.8986     82.12     82.74    -22.12     24.00
   15.9088     81.21     82.97    -23.26     24.00
   15.9190     81.87     83.20    -22.83     24.00
   15.9291     83.80     83.43    -21.13     24.00
   15.9393     83.76     83.66    -21.40     24.00
   15.9495     83.15     83.90    -22.25     24.00
   15.9596     82.29     84.13    -23.34     24.00
   15.9698     83.49     84.36    -22.38     24.00
   15.9800     83.96     84.60    -22.14     24.00
   15.9901     84.82     84.83    -21.51     24.00
   16.0003     84.32     85.07    -22.25     24.00
   16.0105     84.52     85.31    -22.29     24.00
   16.0206     85.15     85.54    -21.89     24.00
   16.0308     85.57     85.78    -21.71     24.00
   16.0409     84.73     86.02    -22.79     24.00
   16.0511     85.47     86.26    -22.29     24.00
   16.0613     85.63     86.50    -22.37     24.00
   16.0714     84.98     86.74    -23.26     24.00
   16.0816     86.51     86.98    -21.97     24.00
   16.0918     87.26     87.22    -21.46     24.00
   16.1019     86.40     87.46    -22.56     24.00
   16.1121     86.62     87.70    -22.58     24.00
   16.1223     87.25     87.94    -22.19     24.00
   16.1324     87.38     88.18    -22.30     24.00
   16.1426     85.83     88.42    -24.09     24.00
   16.1528     86.32     88.67    -23.85     24.00
   16.1629     85.91     88.91    -24.50     24.00
   16.1731     88.60     89.15    -22.05     24.00
   16.1832     88.60     89.39    -22.29     24.00
   16.1934     87.84     89.63    -23.29     24.00
   16.2036     87.61     89.88    -23.77     24.00
   16.2137     88.71     90.12    -22.91     24.00
   16.2239     89.38     90.36    -22.48     24.00
   16.2341     88.54     90.61    -23.57     24.00
   16.2442     87.88     90.85    -24.47     24.00
   16.2544     89.61     91.09    -22.98     24.00
   16.2646     90.09     91.34    -22.75     24.00
   16.2747     89.90     91.58    -23.18     24.00
   16.2849     91.05     91.82    -22.27     24.00
   16.2951     90.57     92.07    -23.00     24.00
   16.3052     90.98     92.31    -22.83     24.00
   16.3154     89.94     92.55    -24.11     24.00
   16.3256     90.38     92.79    -23.91     24.00
   16.3357     90.82     93.04    -23.72     24.00
   16.3459     90.58     93.28    -24.20     24.00
   16.3560     92.37     93.52    -22.65     24.00
   16.3662     91.99     93.76    -23.27     24.00
   16.3764     91.38     94.00    -24.12     24.00
   16.3865     92.95     94.24    -22.79     24.00
   16.3967     93.83     94.49    -22.16     24.00
   16.4069     91.91     94.73    -24.32     24.00
   16.4170     93.12     94.97    -23.35     24.00
   16.4272     93.72     95.21    -22.99     24.00
   16.4374     91.77     95.45    -25.18     24.00
   16.4475     93.15     95.68    -24.03     24.00
   16.4577     93.54     95.92    -23.88     24.00
   16.4679     93.33     96.16    -24.33     24.00
   16.4780     94.12     96.40    -23.78     24.00
   16.4882     94.71     96.63    -23.42     24.00
   16.4983     95.24     96.87    -23.13     24.00
   16.5085     95.09     97.11    -23.52     24.00
   16.5187     93.70     97.34    -25.14     24.00
   16.5288     94.98     97.57    -24.09     24.00
   16.5390     95.92     97.81    -23.39     24.00
   16.5492     94.80     98.04    -24.74     24.00
   16.5593     96.02     98.27    -23.75     24.00
   16.5695     98.28     98.50    -21.72     24.00
   16.5797     96.98     98.73    -23.25     24.00
   16.5898     95.60     98.96    -24.86     24.00
   16.6000     97.20     99.19    -23.49     24.00
   16.6102     96.49     99.42    -24.43     24.00
   16.6203     96.84     99.65    -24.31     24.00
   16.6305     97.40     99.87    -23.97     24.00
   16.6407     97.70    100.10    -23.90     24.00
   16.6508     96.71    100.32    -25.11     24.00
   16.6610     98.69    100.54    -23.35     24.00
   16.6711     98.19    100.76    -24.07     24.00
   16.6813     98.85    100.98    -23.63     24.00
   16.6915    100.07    101.20    -22.63     24.00
   16.7016     99.52    101.42    -23.40     24.00
   16.7118     98.97    101.64    -24.17     24.00
   16.7220    100.79    101.85    -22.56     24.00
   16.7321    100.89    102.07    -22.68     24.00
   16.7423    100.05    102.28    -23.73     24.00
   16.7525     99.35    102.49    -24.64     24.00
   16.7626    102.37    102.70    -21.83     24.00
   16.7728     99.99    102.91    -24.42     24.00
   16.7830    103.09    103.12    -21.53     24.00
   16.7931    101.26    103.33    -23.57     24.00
   16.8033    101.75    103.53    -23.28     24.00
   16.8134    102.37    103.73    -22.86     24.00
   16.8236    102.07    103.94    -23.37     24.00
   16.8338    102.07    104.14    -23.57     24.00
   16.8439    104.04    104.34    -21.80     24.00
   16.8541    102.13    104.53    -23.90     24.00
   16.8643    102.03    104.73    -24.20     24.00
   16.8744    102.09    104.92    -24.33     24.00
   16.8846    101.12    105.12    -25.50     24.00
   16.8948    103.73    105.31    -23.08     24.00
   16.9049    105.41    105.50    -21.59     24.00
   16.9151    103.91    105.69    -23.28     24.00
   16.9253    103.80    105.87    -23.57     24.00
   16.9354    105.34    106.06    -22.22     24.00
   16.9456    104.98    106.24    -22.76     24.00
   16.9558    103.89    106.42    -24.03     24.00
   16.9659    105.77    106.60    -22.33     24.00
   16.9761    104.90    106.78    -23.38     24.00
   16.9862    105.93    106.95    -22.52     24.00
   16.9964    105.90    107.13    -22.73     24.00
   17.0066    104.85    107.30    -23.95     24.00
   17.0167    104.46    107.47    -24.51     24.00
   17.0269    106.84    107.64    -22.30     24.00
   17.0371    105.28    107.80    -24.02     24.00
   17.0472    104.77    107.97    -24.70     24.00
   17.0574    107.53    108.13    -22.10     24.00
   17.0676    106.70    108.29    -23.09     24.00
   17.0777    105.96    108.45    -23.99     24.00
   17.0879    107.66    108.61    -22.45     24.00
   17.0981    107.60    108.77    -22.67     24.00
   17.1082    107.20    108.92    -23.22     24.00
   17.1184    108.73    109.07    -21.84     24.00
   17.1285    109.05    109.22    -21.67     24.00
   17.1387    107.93    109.37    -22.94     24.00
   17.1489    107.66    109.52    -23.36     24.00
   17.1590    107.76    109.67    -23.41     24.00
   17.1692    108.90    109.81    -22.41     24.00
   17.1794    111.31    109.96    -20.15     24.00
   17.1895    109.87    110.10    -21.73     24.00
   17.1997    109.85    110.24    -21.89     24.00
   17.2099    111.79    110.38    -20.09     24.00
   17.2200    109.52    110.52    -22.50     24.00
   17.2302    109.90    110.65    -22.25     24.00
   17.2404    112.95    110.79    -19.34     24.00
   17.2505    110.00    110.92    -22.42     24.00
   17.2607    111.26    111.06    -21.30     24.00
   17.2709    111.41    111.19    -21.28     24.00
   17.2810    112.32    111.32    -20.50     24.00
   17.2912    112.72    111.46    -20.24     24.00
   17.3013    112.25    111.59    -20.84     24.00
   17.3115    112.65    111.72    -20.57     24.00
   17.3217    113.10    111.85    -20.25     24.00
   17.3318    115.03    111.98    -18.45     24.00
   17.3420    114.49    112.11    -19.12     24.00
   17.3522    113.07    112.25    -20.68     24.00
   17.3623    113.61    112.38    -20.27     24.00
   17.3725    112.98    112.51    -21.03     24.00
   17.3827    112.30    112.65    -21.85     24.00
   17.3928    113.44    112.78    -20.84     24.00
   17.4030    113.15    112.92    -21.27     24.00
   17.4132    115.99    113.06    -18.57     24.00
   17.4233    115.04    113.20    -19.66     24.00
   17.4335    113.24    113.35    -21.61     24.00
   17.4436    115.63    113.49    -19.36     24.00
   17.4538    116.74    113.64    -18.40     24.00
   17.4640    116.93    113.80    -18.37     24.00
   17.4741    115.20    113.95    -20.25     24.00
   17.4843    116.37    114.12    -19.25     24.00
   17.4945    116.35    114.28    -19.43     24.00
   17.5046    117.14    114.45    -18.81     24.00
   17.5148    118.26    114.63    -17.87     24.00
   17.5250    115.82    114.82    -20.50     24.00
   17.5351    116.96    115.00    -19.54     24.00
   17.5453    118.59    115.20    -18.11     24.00
   17.5555    119.74    115.41    -17.17     24.00
   17.5656    120.16    115.62    -16.96     24.00
   17.5758    119.49    115.84    -17.85     24.00
   17.5859    120.82    116.07    -16.75     24.00
   17.5961    119.37    116.31    -18.44     24.00
   17.6063    120.31    116.56    -17.75     24.00
   17.6164    121.16    116.82    -17.16     24.00
   17.6266    122.19    117.09    -16.40     24.00
   17.6368    122.46    117.38    -16.42     24.00
   17.6469    121.55    117.67    -17.62     24.00
   17.6571    121.32    117.99    -18.17     24.00
   17.6673    123.73    118.32    -16.09     24.00
   17.6774    123.00    118.66    -17.16     24.00
   17.6876    124.63    119.02    -15.89     24.00
   17.6978    124.24    119.39    -16.65     24.00
   17.7079    125.26    119.78    -16.02     24.00
   17.7181    125.53    120.20    -16.17     24.00
   17.7283    125.92    120.63    -16.21     24.00
   17.7384    125.23    121.08    -17.35     24.00
   17.7486    126.42    121.55    -16.63     24.00
   17.7587    126.67    122.04    -16.87     24.00
   17.7689    127.57    122.56    -16.49     24.00
   17.7791    126.55    123.10    -18.05     24.00
   17.7892    129.16    123.66    -16.00     24.00
   17.7994    129.92    124.25    -15.83     24.00
   17.8096    128.68    124.86    -17.68     24.00
   17.8197    130.35    125.50    -16.65     24.00
   17.8299    131.43    126.17    -16.24     24.00
   17.8401    131.53    126.87    -16.84     24.00
   17.8502    131.75    127.59    -17.34     24.00
   17.8604    132.20    128.35    -17.65     24.00
   17.8706    134.76    129.14    -15.88     24.00
   17.8807    134.95    129.95    -16.50     24.00
   17.8909    135.60    130.80    -16.70     24.00
   17.9010    134.57    131.67    -18.60     24.00
   17.9112    136.11    132.59    -17.98     24.00
   17.9214    136.23    133.54    -18.81     24.00
   17.9315    137.51    134.52    -18.51     24.00
   17.9417    139.20    135.54    -17.84     24.00
   17.9519    137.45    136.59    -20.64     24.00
   17.9620    139.77    137.67    -19.40     24.00
   17.9722    142.37    138.79    -17.92     24.00
   17.9824    142.33    139.96    -19.13     24.00
   17.9925    143.27    141.14    -19.37     24.00
   18.0027    145.27    142.37    -18.60     24.00
   18.0129    143.77    143.64    -21.37     24.00
   18.0230    145.66    144.93    -20.77     24.00
   18.0332    147.24    146.28    -20.54     24.00
   18.0434    147.18    147.65    -21.97     24.00
   18.0535    148.68    149.05    -21.87     24.00
   18.0637    149.13    150.50    -22.87     24.00
   18.0738    151.12    151.96    -22.34     24.00
   18.0840    150.24    153.48    -24.74     24.00
   18.0942    154.17    155.03    -22.36     24.00
   18.1043    154.13    156.59    -23.96     24.00
   18.1145    155.04    158.21    -24.67     24.00
   18.1247    158.99    159.85    -22.36     24.00
   18.1348    156.82    161.50    -26.18     24.00
   18.1450    158.48    163.21    -26.23     24.00
   18.1552    162.72    164.93    -23.71     24.00
   18.1653    163.34    166.67    -24.83     24.00
   18.1755    162.34    168.45    -27.61     24.00
   18.1857    166.13    170.25    -25.62     24.00
   18.1958    167.22    172.05    -26.33     24.00
   18.2060    168.10    173.89    -27.29     24.00
   18.2161    172.05    175.73    -25.18     24.00
   18.2263    170.23    177.60    -28.87     24.00
   18.2365    171.10    179.49    -29.89     24.00
   18.2466    175.13    181.37    -27.74     24.00
   18.2568    177.59    183.27    -27.18     24.00
   18.2670    176.52    185.19    -30.17     24.00
   18.2771    182.76    187.08    -25.82     24.00
   18.2873    181.99    189.00    -28.51     24.00
   18.2975    184.32    190.92    -28.10     24.00
   18.3076    188.37    192.81    -25.94     24.00
   18.3178    186.67    194.72    -29.55     24.00
   18.3280    190.29    196.62    -27.83     24.00
   18.3381    192.41    198.48    -27.57     24.00
   18.3483    192.47    200.35    -29.38     24.00
   18.3585    195.71    202.20    -27.99     24.00
   18.3686    200.44    204.02    -25.08     24.00
   18.3788    200.21    205.82    -27.11     24.00
   18.3889    200.95    207.58    -28.13     24.00
   18.3991    205.46    209.33    -25.37     24.00
   18.4093    209.10    211.05    -23.45     24.00
   18.4194    210.10    212.71    -24.11     24.00
   18.4296    213.20    214.35    -22.65     24.00
   18.4398    217.11    215.95    -20.34     24.00
   18.4499    218.52    217.49    -20.47     24.00
   18.4601    216.78    218.99    -23.71     24.00
   18.4703    219.52    220.44    -22.42     24.00
   18.4804    223.37    221.82    -19.95     24.00
   18.4906    225.91    223.16    -18.75     24.00
   18.5008    226.87    224.44    -19.07     24.00
   18.5109    226.25    225.65    -20.90     24.00
   18.5211    232.73    226.80    -15.57     24.00
   18.5312    232.20    227.87    -17.17     24.00
   18.5414    232.27    228.89    -18.12     24.00
   18.5516    232.53    229.83    -18.80     24.00
   18.5617    238.00    230.68    -14.18     24.00
   18.5719    237.19    231.47    -15.78     24.00
   18.5821    239.13    232.18    -14.55     24.00
   18.5922    241.16    232.80    -13.14     24.00
   18.6024    239.89    233.35    -14.96     24.00
   18.6126    244.21    233.82    -11.11     24.00
   18.6227    242.79    234.20    -12.91     24.00
   18.6329    241.05    234.49    -14.94     24.00
   18.6431    244.05    234.70    -12.15     24.00
   18.6532    245.92    234.82    -10.40     24.00
   18.6634    243.66    234.86    -12.70     24.00
   18.6736    243.22    234.81    -13.09     24.00
   18.6837    243.54    234.68    -12.64     24.00
   18.6939    244.82    234.46    -11.14     24.00
   18.7040    243.46    234.16    -12.20     24.00
   18.7142    243.65    233.77    -11.62     24.00
   18.7244    239.15    233.29    -15.64     24.00
   18.7345    239.03    232.74    -15.21     24.00
   18.7447    240.29    232.10    -13.31     24.00
   18.7549    236.43    231.39    -16.46     24.00
   18.7650    236.60    230.60    -15.50     24.00
   18.7752    233.27    229.73    -17.96     24.00
   18.7854    230.67    228.79    -19.62     24.00
   18.7955    231.80    227.79    -17.49     24.00
   18.8057    230.37    226.71    -17.84     24.00
   18.8159    226.01    225.56    -21.05     24.00
   18.8260    226.20    224.36    -19.66     24.00
   18.8362    225.30    223.09    -19.29     24.00
   18.8463    220.27    221.77    -23.00     24.00
   18.8565    219.55    220.39    -22.34     24.00
   18.8667    218.12    218.95    -22.33     24.00
   18.8768    213.96    217.48    -25.02     24.00
   18.8870    214.02    215.95    -23.43     24.00
   18.8972    213.37    214.38    -22.51     24.00
   18.9073    209.19    212.78    -25.09     24.00
   18.9175    209.63    211.13    -23.00     24.00
   18.9277    204.79    209.45    -26.16     24.00
   18.9378    202.70    207.75    -26.55     24.00
   18.9480    199.39    206.01    -28.12     24.00
   18.9582    198.48    204.25    -27.27     24.00
   18.9683    194.11    202.48    -29.87     24.00
   18.9785    193.71    200.68    -28.47     24.00
   18.9887    194.50    198.86    -25.86     24.00
   18.9988    190.49    197.05    -28.06     24.00
   19.0090    189.23    195.21    -27.48     24.00
   19.0191    188.16    193.39    -26.73     24.00
   19.0293    185.11    191.55    -27.94     24.00
   19.0395    183.75    189.70    -27.45     24.00
   19.0496    182.92    187.88    -26.46     24.00
   19.0598    179.52    186.04    -28.02     24.00
   19.0700    178.50    184.22    -27.22     24.00
   19.0801    177.14    182.42    -26.78     24.00
   19.0903    173.97    180.61    -28.14     24.00
   19.1005    172.63    178.82    -27.69     24.00
   19.1106    172.95    177.07    -25.62     24.00
   19.1208    170.23    175.32    -26.59     24.00
   19.1310    169.75    173.59    -25.34     24.00
   19.1411    170.02    171.90    -23.38     24.00
   19.1513    166.15    170.22    -25.57     24.00
   19.1614    165.16    168.58    -24.92     24.00
   19.1716    163.53    166.95    -24.92     24.00
   19.1818    161.77    165.36    -25.09     24.00
   19.1919    159.67    163.81    -25.64     24.00
   19.2021    161.00    162.28    -22.78     24.00
   19.2123    157.32    160.78    -24.96     24.00
   19.2224    157.01    159.34    -23.83     24.00
   19.2326    156.40    157.91    -23.01     24.00
   19.2428    155.05    156.52    -22.97     24.00
   19.2529    155.37    155.19    -21.32     24.00
   19.2631    151.66    153.87    -23.71     24.00
   19.2733    152.52    152.60    -21.58     24.00
   19.2834    153.16    151.38    -19.72     24.00
   19.2936    152.32    150.19    -19.37     24.00
   19.3038    151.19    149.03    -19.34     24.00
   19.3139    150.35    147.93    -19.08     24.00
   19.3241    148.52    146.86    -19.84     24.00
   19.3342    147.76    145.84    -19.58     24.00
   19.3444    148.23    144.84    -18.11     24.00
   19.3546    147.74    143.89    -17.65     24.00
   19.3647    146.52    142.99    -17.97     24.00
   19.3749    146.02    142.12    -17.60     24.00
   19.3851    145.63    141.29    -17.16     24.00
   19.3952    143.36    140.50    -18.64     24.00
   19.4054    145.03    139.75    -16.22     24.00
   19.4156    143.51    139.03    -17.02     24.00
   19.4257    143.58    138.36    -16.28     24.00
   19.4359    141.27    137.72    -17.95     24.00
   19.4461    141.27    137.11    -17.34     24.00
   19.4562    140.70    136.55    -17.35     24.00
   19.4664    140.65    136.02    -16.87     24.00
   19.4765    142.25    135.52    -14.77     24.00
   19.4867    138.06    135.05    -18.49     24.00
   19.4969    139.56    134.62    -16.56     24.00
   19.5070    139.02    134.22    -16.70     24.00
   19.5172    137.82    133.85    -17.53     24.00
   19.5274    137.29    133.51    -17.72     24.00
   19.5375    137.84    133.20    -16.86     24.00
   19.5477    136.68    132.92    -17.74     24.00
   19.5579    136.82    132.66    -17.34     24.00
   19.5680    137.06    132.43    -16.87     24.00
   19.5782    136.79    132.23    -16.94     24.00
   19.5884    138.71    132.05    -14.84     24.00
   19.5985    135.77    131.90    -17.63     24.00
   19.6087    136.85    131.76    -16.41     24.00
   19.6188    134.99    131.65    -18.16     24.00
   19.6290    136.54    131.56    -16.52     24.00
   19.6392    132.86    131.49    -20.13     24.00
   19.6493    135.97    131.44    -16.97     24.00
   19.6595    133.16    131.41    -19.75     24.00
   19.6697    134.55    131.39    -18.34     24.00
   19.6798    136.24    131.39    -16.65     24.00
   19.6900    133.45    131.41    -19.46     24.00
   19.7002    132.73    131.44    -20.21     24.00
   19.7103    134.10    131.48    -18.88     24.00
   19.7205    133.62    131.54    -19.42     24.00
   19.7307    133.68    131.61    -19.43     24.00
   19.7408    132.45    131.69    -20.74     24.00
   19.7510    134.54    131.78    -18.74     24.00
   19.7612    132.66    131.88    -20.72     24.00
   19.7713    132.26    131.99    -21.23     24.00
   19.7815    133.79    132.11    -19.82     24.00
   19.7916    130.87    132.24    -22.87     24.00
   19.8018    132.12    132.37    -21.75     24.00
   19.8120    132.85    132.52    -21.17     24.00
   19.8221    130.85    132.66    -23.31     24.00
   19.8323    133.67    132.81    -20.64     24.00
   19.8425    132.72    132.97    -21.75     24.00
   19.8526    133.24    133.13    -21.39     24.00
   19.8628    132.45    133.30    -22.35     24.00
   19.8730    131.16    133.46    -23.80     24.00
   19.8831    132.13    133.63    -23.00     24.00
   19.8933    132.33    133.81    -22.98     24.00
   19.9035    130.81    133.98    -24.67     24.00
   19.9136    130.15    134.15    -25.50     24.00
   19.9238    131.26    134.33    -24.57     24.00
   19.9339    131.44    134.50    -24.56     24.00
   19.9441    131.68    134.68    -24.50     24.00
   19.9543    131.90    134.86    -24.46     24.00
   19.9644    131.65    135.03    -24.88     24.00
   19.9746    131.45    135.20    -25.25     24.00
   19.9848    132.46    135.37    -24.41     24.00
   19.9949    134.58    135.54    -22.46     24.00
   20.0051    132.21    135.70    -24.99     24.00
   20.0153    132.66    135.87    -24.71     24.00
   20.0254    131.28    136.03    -26.25     24.00
   20.0356    130.87    136.18    -26.81     24.00
   20.0458    132.79    136.34    -25.05     24.00
   20.0559    133.18    136.48    -24.80     24.00
   20.0661    132.52    136.63    -25.61     24.00
   20.0763    132.54    136.77    -25.73     24.00
   20.0864    131.04    136.90    -27.36     24.00
   20.0966    132.32    137.04    -26.22     24.00
   20.1067    131.85    137.16    -26.81     24.00
   20.1169    134.09    137.28    -24.69     24.00
   20.1271    131.70    137.39    -27.19     24.00
   20.1372    132.95    137.50    -26.05     24.00
   20.1474    133.67    137.60    -25.43     24.00
   20.1576    132.93    137.70    -26.27     24.00
   20.1677    133.53    137.79    -25.76     24.00
   20.1779    134.04    137.87    -25.33     24.00
   20.1881    133.30    137.95    -26.15     24.00
   20.1982    134.05    138.02    -25.47     24.00
   20.2084    135.00    138.09    -24.59     24.00
   20.2186    133.29    138.14    -26.35     24.00
   20.2287    134.72    138.19    -24.97     24.00
   20.2389    135.63    138.23    -24.10     24.00
   20.2490    134.52    138.27    -25.25     24.00
   20.2592    134.78    138.30    -25.02     24.00
   20.2694    136.21    138.32    -23.61     24.00
   20.2795    133.23    138.33    -26.60     24.00
   20.2897    135.95    138.34    -23.89     24.00
   20.2999    136.29    138.33    -23.54     24.00
   20.3100    135.65    138.32    -24.17     24.00
   20.3202    136.68    138.31    -23.13     24.00
   20.3304    137.80    138.28    -21.98     24.00
   20.3405    135.04    138.25    -24.71     24.00
   20.3507    136.71    138.21    -23.00     24.00
   20.3609    136.79    138.16    -22.87     24.00
   20.3710    134.60    138.11    -25.01     24.00
   20.3812    137.65    138.04    -21.89     24.00
   20.3914    138.60    137.97    -20.87     24.00
   20.4015    136.33    137.89    -23.06     24.00
   20.4117    138.62    137.81    -20.69     24.00
   20.4218    139.05    137.71    -20.16     24.00
   20.4320    136.85    137.61    -22.26     24.00
   20.4422    138.05    137.50    -20.95     24.00
   20.4523    138.77    137.39    -20.12     24.00
   20.4625    137.85    137.26    -20.91     24.00
   20.4727    139.93    137.13    -18.70     24.00
   20.4828    139.84    136.99    -18.65     24.00
   20.4930    138.67    136.85    -19.68     24.00
   20.5032    136.09    136.70    -22.11     24.00
   20.5133    137.65    136.54    -20.39     24.00
   20.5235    136.87    136.37    -21.00     24.00
   20.5337    139.07    136.20    -18.63     24.00
   20.5438    137.59    136.02    -19.93     24.00
   20.5540    139.68    135.83    -17.65     24.00
   20.5641    140.60    135.64    -16.54     24.00
   20.5743    138.88    135.44    -18.06     24.00
   20.5845    136.43    135.24    -20.31     24.00
   20.5946    137.09    135.03    -19.44     24.00
   20.6048    137.79    134.81    -18.52     24.00
   20.6150    137.33    134.59    -18.76     24.00
   20.6251    140.12    134.37    -15.75     24.00
   20.6353    138.13    134.13    -17.50     24.00
   20.6455    136.09    133.89    -19.30     24.00
   20.6556    138.87    133.65    -16.28     24.00
   20.6658    138.38    133.41    -16.53     24.00
   20.6760    136.88    133.15    -17.77     24.00
   20.6861    137.03    132.90    -17.37     24.00
   20.6963    136.57    132.64    -17.57     24.00
   20.7065    136.01    132.37    -17.86     24.00
   20.7166    137.64    132.11    -15.97     24.00
   20.7268    137.54    131.83    -15.79     24.00
   20.7369    134.85    131.56    -18.21     24.00
   20.7471    135.23    131.28    -17.55     24.00
   20.7573    134.32    131.00    -18.18     24.00
   20.7674    134.42    130.72    -17.80     24.00
   20.7776    135.62    130.43    -16.31     24.00
   20.7878    133.71    130.14    -17.93     24.00
   20.7979    132.58    129.85    -18.77     24.00
   20.8081    133.70    129.56    -17.36     24.00
   20.8183    131.35    129.26    -19.41     24.00
   20.8284    132.97    128.97    -17.50     24.00
   20.8386    131.32    128.67    -18.85     24.00
   20.8488    131.11    128.37    -18.76     24.00
   20.8589    128.73    128.07    -20.84     24.00
   20.8691    130.17    127.77    -19.10     24.00
   20.8792    131.40    127.48    -17.58     24.00
   20.8894    129.68    127.18    -19.00     24.00
   20.8996    129.79    126.88    -18.59     24.00
   20.9097    128.69    126.58    -19.39     24.00
   20.9199    127.29    126.28    -20.49     24.00
   20.9301    128.70    125.99    -18.79     24.00
   20.9402    128.91    125.69    -18.28     24.00
   20.9504    127.90    125.40    -19.00     24.00
   20.9606    125.91    125.10    -20.69     24.00
   20.9707    124.94    124.82    -21.38     24.00
   20.9809    126.51    124.53    -19.52     24.00
   20.9911    126.60    124.24    -19.14     24.00
   21.0012    125.17    123.96    -20.29     24.00
   21.0114    122.10    123.68    -23.08     24.00
   21.0216    125.15    123.41    -19.76     24.00
   21.0317    123.19    123.14    -21.45     24.00
   21.0419    121.99    122.87    -22.38     24.00
   21.0520    124.39    122.61    -19.72     24.00
   21.0622    123.82    122.35    -20.03     24.00
   21.0724    121.45    122.09    -22.14     24.00
   21.0825    124.45    121.84    -18.89     24.00
   21.0927    120.32    121.60    -22.78     24.00
   21.1029    120.85    121.36    -22.01     24.00
   21.1130    120.68    121.13    -21.95     24.00
   21.1232    120.32    120.90    -22.08     24.00
   21.1334    120.06    120.68    -22.12     24.00
   21.1435    120.02    120.47    -21.95     24.00
   21.1537    120.01    120.26    -21.75     24.00
   21.1639    119.43    120.06    -22.13     24.00
   21.1740    119.59    119.86    -21.77     24.00
   21.1842    119.21    119.68    -21.97     24.00
   21.1943    118.69    119.50    -22.31     24.00
   21.2045    119.17    119.33    -21.66     24.00
   21.2147    120.03    119.17    -20.64     24.00
   21.2248    117.02    119.01    -23.49     24.00
   21.2350    117.55    118.87    -22.82     24.00
   21.2452    118.81    118.73    -21.42     24.00
   21.2553    117.00    118.60    -23.10     24.00
   21.2655    117.07    118.49    -22.92     24.00
   21.2757    118.14    118.38    -21.74     24.00
   21.2858    115.88    118.28    -23.90     24.00
   21.2960    117.30    118.19    -22.39     24.00
   21.3062    114.73    118.11    -24.88     24.00
   21.3163    114.74    118.04    -24.80     24.00
   21.3265    117.48    117.98    -22.00     24.00
   21.3366    115.59    117.93    -23.84     24.00
   21.3468    115.20    117.90    -24.20     24.00
   21.3570    116.52    117.87    -22.85     24.00
   21.3671    116.01    117.85    -23.34     24.00
   21.3773    114.12    117.85    -25.23     24.00
   21.3875    116.66    117.85    -22.69     24.00
   21.3976    114.87    117.87    -24.50     24.00
   21.4078    114.19    117.90    -25.21     24.00
   21.4180    115.82    117.94    -23.62     24.00
   21.4281    117.30    117.99    -22.19     24.00
   21.4383    115.39    118.06    -24.17     24.00
   21.4485    117.22    118.14    -22.42     24.00
   21.4586    116.13    118.22    -23.59     24.00
   21.4688    115.05    118.32    -24.77     24.00
   21.4790    116.90    118.44    -23.04     24.00
   21.4891    116.47    118.56    -23.59     24.00
   21.4993    115.22    118.70    -24.98     24.00
   21.5094    116.34    118.84    -24.00     24.00
   21.5196    117.91    119.00    -22.59     24.00
   21.5298    114.77    119.18    -25.91     24.00
   21.5399    115.92    119.36    -24.94     24.00
   21.5501    117.81    119.56    -23.25     24.00
   21.5603    115.58    119.77    -25.69     24.00
   21.5704    117.60    119.98    -23.88     24.00
   21.5806    116.85    120.22    -24.87     24.00
   21.5908    115.94    120.46    -26.02     24.00
   21.6009    116.95    120.72    -25.27     24.00
   21.6111    119.49    120.98    -22.99     24.00
   21.6213    118.70    121.26    -24.06     24.00
   21.6314    116.55    121.55    -26.50     24.00
   21.6416    117.21    121.85    -26.14     24.00
   21.6517    118.51    122.16    -25.15     24.00
   21.6619    119.46    122.49    -24.53     24.00
   21.6721    120.27    122.82    -24.05     24.00
   21.6822    119.43    123.16    -25.23     24.00
   21.6924    123.02    123.52    -22.00     24.00
   21.7026    121.97    123.89    -23.42     24.00
   21.7127    120.38    124.26    -25.38     24.00
   21.7229    121.99    124.64    -24.15     24.00
   21.7331    122.96    125.04    -23.58     24.00
   21.7432    122.49    125.44    -24.45     24.00
   21.7534    123.65    125.85    -23.70     24.00
   21.7636    125.35    126.27    -22.42     24.00
   21.7737    124.44    126.70    -23.76     24.00
   21.7839    127.34    127.13    -21.29     24.00
   21.7941    127.16    127.58    -21.92     24.00
   21.8042    125.93    128.03    -23.60     24.00
   21.8144    127.87    128.49    -22.12     24.00
   21.8245    129.97    128.95    -20.48     24.00
   21.8347    128.21    129.42    -22.71     24.00
   21.8449    131.34    129.89    -20.05     24.00
   21.8550    132.73    130.37    -19.14     24.00
   21.8652    131.38    130.86    -20.98     24.00
   21.8754    131.46    131.35    -21.39     24.00
   21.8855    134.32    131.84    -19.02     24.00
   21.8957    135.05    132.34    -18.79     24.00
   21.9059    133.65    132.84    -20.69     24.00
   21.9160    135.15    133.34    -19.69     24.00
   21.9262    134.83    133.85    -20.52     24.00
   21.9364    135.43    134.36    -20.43     24.00
   21.9465    138.46    134.87    -17.91     24.00
   21.9567    138.48    135.38    -18.40     24.00
   21.9668    137.96    135.88    -19.42     24.00
   21.9770    139.29    136.39    -18.60     24.00
   21.9872    138.23    136.90    -20.17     24.00
   21.9973    139.95    137.41    -18.96     24.00
   22.0075    141.58    137.91    -17.83     24.00
   22.0177    141.23    138.42    -18.69     24.00
   22.0278    140.71    138.91    -19.70     24.00
   22.0380    142.40    139.41    -18.51     24.00
   22.0482    142.13    139.91    -19.28     24.00
   22.0583    142.40    140.39    -19.49     24.00
   22.0685    143.62    140.88    -18.76     24.00
   22.0787    142.55    141.35    -20.30     24.00
   22.0888    145.05    141.82    -18.27     24.00
   22.0990    145.35    142.29    -18.44     24.00
   22.1092    142.73    142.75    -21.52     24.00
   22.1193    144.52    143.19    -20.17     24.00
   22.1295    148.02    143.63    -17.11     24.00
   22.1396    145.27    144.06    -20.29     24.00
   22.1498    144.92    144.49    -21.07     24.00
   22.1600    147.10    144.90    -19.30     24.00
   22.1701    144.01    145.30    -22.79     24.00
   22.1803    147.32    145.69    -19.87     24.00
   22.1905    147.91    146.07    -19.66     24.00
   22.2006    148.08    146.43    -19.85     24.00
   22.2108    148.10    146.79    -20.19     24.00
   22.2210    150.85    147.13    -17.78     24.00
   22.2311    148.28    147.45    -20.67     24.00
   22.2413    150.38    147.77    -18.89     24.00
   22.2515    150.63    148.07    -18.94     24.00
   22.2616    149.19    148.35    -20.66     24.00
   22.2718    150.74    148.62    -19.38     24.00
   22.2819    150.78    148.87    -19.59     24.00
   22.2921    150.39    149.10    -20.21     24.00
   22.3023    152.37    149.32    -18.45     24.00
   22.3124    153.03    149.52    -17.99     24.00
   22.3226    151.30    149.71    -19.91     24.00
   22.3328    154.37    149.88    -17.01     24.00
   22.3429    151.90    150.02    -19.62     24.00
   22.3531    152.79    150.15    -18.86     24.00
   22.3633    153.40    150.26    -18.36     24.00
   22.3734    154.74    150.35    -17.11     24.00
   22.3836    151.29    150.43    -20.64     24.00
   22.3938    152.71    150.48    -19.27     24.00
   22.4039    154.32    150.51    -17.69     24.00
   22.4141    151.07    150.52    -20.95     24.00
   22.4243    154.94    150.52    -17.08     24.00
   22.4344    153.34    150.49    -18.65     24.00
   22.4446    150.61    150.44    -21.33     24.00
   22.4547    151.15    150.37    -20.72     24.00
   22.4649    153.72    150.28    -18.06     24.00
   22.4751    149.45    150.17    -22.22     24.00
   22.4852    151.51    150.04    -20.03     24.00
   22.4954    150.65    149.89    -20.74     24.00
   22.5056    150.82    149.72    -20.40     24.00
   22.5157    149.64    149.53    -21.39     24.00
   22.5259    151.99    149.32    -18.83     24.00
   22.5361    148.30    149.08    -22.28     24.00
   22.5462    149.71    148.83    -20.62     24.00
   22.5564    150.49    148.55    -19.56     24.00
   22.5666    146.15    148.26    -23.61     24.00
   22.5767    149.07    147.95    -20.38     24.00
   22.5869    148.16    147.61    -20.95     24.00
   22.5970    145.88    147.27    -22.89     24.00
   22.6072    146.40    146.89    -21.99     24.00
   22.6174    146.00    146.50    -22.00     24.00
   22.6275    145.20    146.10    -22.40     24.00
   22.6377    145.93    145.67    -21.24     24.00
   22.6479    145.28    145.22    -21.44     24.00
   22.6580    142.76    144.76    -23.50     24.00
   22.6682    142.81    144.28    -22.97     24.00
   22.6784    142.05    143.78    -23.23     24.00
   22.6885    141.11    143.27    -23.66     24.00
   22.6987    142.16    142.74    -22.08     24.00
   22.7089    141.22    142.20    -22.48     24.00
   22.7190    139.71    141.64    -23.43     24.00
   22.7292    139.65    141.06    -22.91     24.00
   22.7394    138.41    140.47    -23.56     24.00
   22.7495    136.31    139.88    -25.07     24.00
   22.7597    139.45    139.26    -21.31     24.00
   22.7698    133.93    138.63    -26.20     24.00
   22.7800    134.76    137.99    -24.73     24.00
   22.7902    135.59    137.33    -23.24     24.00
   22.8003    134.42    136.67    -23.75     24.00
   22.8105    132.26    136.00    -25.24     24.00
   22.8207    133.38    135.31    -23.43     24.00
   22.8308    133.42    134.62    -22.70     24.00
   22.8410    130.54    133.91    -24.87     24.00
   22.8512    129.75    133.19    -24.94     24.00
   22.8613    130.49    132.47    -23.48     24.00
   22.8715    128.84    131.74    -24.40     24.00
   22.8817    127.35    131.00    -25.15     24.00
   22.8918    129.13    130.26    -22.63     24.00
   22.9020    126.04    129.50    -24.96     24.00
   22.9121    127.09    128.75    -23.16     24.00
   22.9223    124.65    127.98    -24.83     24.00
   22.9325    124.02    127.21    -24.69     24.00
   22.9426    123.00    126.44    -24.94     24.00
   22.9528    122.66    125.66    -24.50     24.00
   22.9630    121.82    124.88    -24.56     24.00
   22.9731    122.09    124.10    -23.51     24.00
   22.9833    120.62    123.31    -24.19     24.00
   22.9935    118.69    122.52    -25.33     24.00
   23.0036    120.32    121.73    -22.91     24.00
   23.0138    118.07    120.94    -24.37     24.00
   23.0240    116.33    120.14    -25.31     24.00
   23.0341    116.73    119.36    -24.13     24.00
   23.0443    116.99    118.56    -23.07     24.00
   23.0545    114.61    117.77    -24.66     24.00
   23.0646    115.71    116.98    -22.77     24.00
   23.0748    114.12    116.19    -23.57     24.00
   23.0849    112.21    115.40    -24.69     24.00
   23.0951    113.33    114.61    -22.78     24.00
   23.1053    111.55    113.83    -23.78     24.00
   23.1154    112.09    113.05    -22.46     24.00
   23.1256    111.69    112.27    -22.08     24.00
   23.1358    109.63    111.49    -23.36     24.00
   23.1459    107.45    110.73    -24.78     24.00
   23.1561    109.09    109.96    -22.37     24.00
   23.1663    109.36    109.19    -21.33     24.00
   23.1764    106.32    108.44    -23.62     24.00
   23.1866    107.24    107.69    -21.95     24.00
   23.1968    107.40    106.94    -21.04     24.00
   23.2069    105.17    106.20    -22.53     24.00
   23.2171    106.48    105.46    -20.48     24.00
   23.2272    104.04    104.74    -22.20     24.00
   23.2374    103.40    104.01    -22.11     24.00
   23.2476    103.14    103.30    -21.66     24.00
   23.2577    102.95    102.59    -21.14     24.00
   23.2679    102.11    101.89    -21.28     24.00
   23.2781    102.16    101.19    -20.53     24.00
   23.2882     99.73    100.51    -22.28     24.00
   23.2984    100.57     99.82    -20.75     24.00
   23.3086     98.24     99.15    -22.41     24.00
   23.3187     98.00     98.49    -21.99     24.00
   23.3289     99.53     97.83    -19.80     24.00
   23.3391     98.16     97.18    -20.52     24.00
   23.3492     98.04     96.55    -20.01     24.00
   23.3594     97.30     95.91    -20.11     24.00
   23.3695     96.54     95.29    -20.25     24.00
   23.3797     96.98     94.68    -19.20     24.00
   23.3899     95.24     94.07    -20.33     24.00
   23.4000     95.63     93.48    -19.35     24.00
   23.4102     95.16     92.89    -19.23     24.00
   23.4204     94.78     92.31    -19.03     24.00
   23.4305     95.08     91.74    -18.16     24.00
   23.4407     91.99     91.18    -20.69     24.00
   23.4509     91.91     90.62    -20.21     24.00
   23.4610     92.45     90.08    -19.13     24.00
   23.4712     90.55     89.55    -20.50     24.00
   23.4814     89.60     89.02    -20.92     24.00
   23.4915     90.82     88.51    -19.19     24.00
   23.5017     90.04     88.00    -19.46     24.00
   23.5119     91.20     87.50    -17.80     24.00
   23.5220     89.04     87.01    -19.47     24.00
   23.5322     89.57     86.53    -18.46     24.00
   23.5423     88.46     86.06    -19.10     24.00
   23.5525     88.30     85.59    -18.79     24.00
   23.5627     87.40     85.14    -19.24     24.00
   23.5728     87.98     84.69    -18.21     24.00
   23.5830     87.13     84.25    -18.62     24.00
   23.5932     87.35     83.82    -17.97     24.00
   23.6033     86.17     83.41    -18.74     24.00
   23.6135     84.66     82.99    -19.83     24.00
   23.6237     85.44     82.59    -18.65     24.00
   23.6338     84.95     82.19    -18.74     24.00
   23.6440     85.10     81.80    -18.20     24.00
   23.6542     84.16     81.42    -18.76     24.00
   23.6643     83.68     81.05    -18.87     24.00
   23.6745     83.36     80.68    -18.82     24.00
   23.6846     82.96     80.33    -18.87     24.00
   23.6948     82.63     79.98    -18.85     24.00
   23.7050     82.52     79.63    -18.61     24.00
   23.7151     82.55     79.30    -18.25     24.00
   23.7253     80.91     78.97    -19.56     24.00
   23.7355     81.55     78.65    -18.60     24.00
   23.7456     80.04     78.34    -19.80     24.00
   23.7558     80.45     78.03    -19.08     24.00
   23.7660     78.46     77.73    -20.77     24.00
   23.7761     80.44     77.43    -18.49     24.00
   23.7863     79.42     77.15    -19.23     24.00
   23.7965     79.27     76.86    -19.09     24.00
   23.8066     80.90     76.59    -17.19     24.00
   23.8168     77.88     76.32    -19.94     24.00
   23.8270     76.83     76.05    -20.72     24.00
   23.8371     78.69     75.80    -18.61     24.00
   23.8473     78.09     75.54    -18.95     24.00
   23.8574     78.79     75.30    -18.01     24.00
   23.8676     77.43     75.05    -19.12     24.00
   23.8778     77.10     74.82    -19.22     24.00
   23.8879     76.80     74.59    -19.29     24.00
   23.8981     77.29     74.36    -18.57     24.00
   23.9083     74.90     74.14    -20.74     24.00
   23.9184     75.27     73.92    -20.15     24.00
   23.9286     76.04     73.71    -19.17     24.00
   23.9388     75.44     73.50    -19.56     24.00
   23.9489     74.34     73.30    -20.46     24.00
   23.9591     74.11     73.10    -20.49     24.00
   23.9693     74.63     72.90    -19.77     24.00
   23.9794     74.67     72.71    -19.54     24.00
   23.9896     73.96     72.52    -20.06     24.00
   23.9997     74.46     72.34    -19.38     24.00
   24.0099     72.32     72.16    -21.34     24.00
   24.0201     73.45     71.98    -20.03     24.00
   24.0302     71.53     71.81    -21.78     24.00
   24.0404     74.00     71.64    -19.14     24.00
   24.0506     72.34     71.47    -20.63     24.00
   24.0607     73.92     71.31    -18.89     24.00
   24.0709     70.55     71.15    -22.10     24.00
   24.0811     71.56     70.99    -20.93     24.00
   24.0912     72.18     70.83    -20.15     24.00
   24.1014     72.85     70.68    -19.33     24.00
   24.1116     71.85     70.53    -20.18     24.00
   24.1217     70.74     70.38    -21.14     24.00
   24.1319     70.90     70.24    -20.84     24.00
   24.1421     71.43     70.10    -20.17     24.00
   24.1522     70.37     69.96    -21.09     24.00
   24.1624     69.04     69.82    -22.28     24.00
   24.1725     70.96     69.68    -20.22     24.00
   24.1827     71.42     69.55    -19.63     24.00
   24.1929     69.79     69.42    -21.13     24.00
   24.2030     70.09     69.29    -20.70     24.00
   24.2132     69.29     69.16    -21.37     24.00
   24.2234     70.35     69.03    -20.18     24.00
   24.2335     67.70     68.91    -22.71     24.00
   24.2437     66.83     68.79    -23.46     24.00
   24.2539     68.87     68.66    -21.29     24.00
   24.2640     68.59     68.55    -21.46     24.00
   24.2742     69.09     68.43    -20.84     24.00
   24.2844     68.23     68.31    -21.58     24.00
   24.2945     68.30     68.19    -21.39     24.00
   24.3047     68.00     68.08    -21.58     24.00
   24.3148     67.71     67.97    -21.76     24.00
   24.3250     67.31     67.86    -22.05     24.00
   24.3352     66.80     67.74    -22.44     24.00
   24.3453     67.23     67.63    -21.90     24.00
   24.3555     66.39     67.53    -22.64     24.00
   24.3657     67.10     67.42    -21.82     24.00
   24.3758     65.43     67.31    -23.38     24.00
   24.3860     66.99     67.21    -21.72     24.00
   24.3962     65.26     67.10    -23.34     24.00
   24.4063     67.10     67.00    -21.40     24.00
   24.4165     66.88     66.89    -21.51     24.00
   24.4267     66.49     66.79    -21.80     24.00
   24.4368     65.58     66.69    -22.61     24.00
   24.4470     65.11     66.59    -22.98     24.00
   24.4572     65.43     66.49    -22.56     24.00
   24.4673     65.55     66.39    -22.34     24.00
   24.4775     65.16     66.29    -22.63     24.00
   24.4876     64.63     66.19    -23.06     24.00
   24.4978     65.29     66.09    -22.30     24.00
   24.5080     64.23     65.99    -23.26     24.00
   24.5181     62.73     65.90    -24.67     24.00
   24.5283     64.74     65.80    -22.56     24.00
   24.5385     63.65     65.70    -23.55     24.00
   24.5486     64.71     65.61    -22.40     24.00
   24.5588     63.45     65.51    -23.56     24.00
   24.5690     62.62     65.42    -24.30     24.00
   24.5791     62.99     65.32    -23.83     24.00
   24.5893     63.98     65.23    -22.75     24.00
   24.5995     63.49     65.14    -23.15     24.00
   24.6096     64.65     65.04    -21.89     24.00
   24.6198     63.87     64.95    -22.58     24.00
   24.6299     63.07     64.86    -23.29     24.00
   24.6401     61.57     64.77    -24.70     24.00
   24.6503     63.43     64.67    -22.74     24.00
   24.6604     62.26     64.58    -23.82     24.00
   24.6706     61.80     64.49    -24.19     24.00
   24.6808     61.86     64.40    -24.04     24.00
   24.6909     62.84     64.31    -22.97     24.00
   24.7011     62.85     64.22    -22.87     24.00
   24.7113     63.13     64.13    -22.50     24.00
   24.7214     62.05     64.04    -23.49     24.00
   24.7316     61.78     63.95    -23.67     24.00
   24.7418     62.27     63.86    -23.09     24.00
   24.7519     61.26     63.77    -24.01     24.00
   24.7621     61.30     63.68    -23.88     24.00
   24.7723     62.63     63.59    -22.46     24.00
   24.7824     62.23     63.50    -22.77     24.00
   24.7926     61.43     63.41    -23.48     24.00
   24.8027     61.43     63.32    -23.39     24.00
   24.8129     62.30     63.23    -22.43     24.00
   24.8231     61.27     63.14    -23.37     24.00
   24.8332     60.50     63.06    -24.06     24.00
   24.8434     59.91     62.97    -24.56     24.00
   24.8536     60.88     62.88    -23.50     24.00
   24.8637     60.79     62.79    -23.50     24.00
   24.8739     61.23     62.70    -22.97     24.00
   24.8841     59.88     62.62    -24.24     24.00
   24.8942     61.43     62.53    -22.60     24.00
   24.9044     60.40     62.44    -23.54     24.00
   24.9146     60.68     62.35    -23.17     24.00
   24.9247     61.40     62.27    -22.37     24.00
   24.9349     60.30     62.18    -23.38     24.00
   24.9450     58.85     62.09    -24.74     24.00
   24.9552     61.14     62.01    -22.37     24.00
   24.9654     59.82     61.92    -23.60     24.00
   24.9755     59.55     61.83    -23.78     24.00
   24.9857     58.94     61.75    -24.31     24.00
   24.9959     58.61     61.66    -24.55     24.00
   25.0060     59.87     61.57    -23.20     24.00
   25.0162     59.00     61.49    -23.99     24.00
   25.0264     58.88     61.40    -24.02     24.00
   25.0365     59.22     61.31    -23.59     24.00
   25.0467     57.70     61.23    -25.03     24.00
   25.0569     59.96     61.14    -22.68     24.00
   25.0670     59.71     61.06    -22.85     24.00
   25.0772     59.70     60.97    -22.77     24.00
   25.0874     58.26     60.88    -24.12     24.00
   25.0975     59.63     60.80    -22.67     24.00
   25.1077     58.61     60.71    -23.60     24.00
   25.1178     58.83     60.63    -23.30     24.00
   25.1280     57.74     60.54    -24.30     24.00
   25.1382     58.43     60.46    -23.53     24.00
   25.1483     58.87     60.37    -23.00     24.00
   25.1585     59.20     60.29    -22.59     24.00
   25.1687     58.18     60.20    -23.52     24.00
   25.1788     57.30     60.12    -24.32     24.00
   25.1890     58.37     60.03    -23.16     24.00
   25.1992     59.45     59.95    -22.00     24.00
   25.2093     57.91     59.86    -23.45     24.00
   25.2195     57.84     59.78    -23.44     24.00
   25.2297     58.53     59.69    -22.66     24.00
   25.2398     58.26     59.61    -22.85     24.00
   25.2500     58.09     59.52    -22.93     24.00
   25.2601     57.26     59.44    -23.68     24.00
   25.2703     58.71     59.36    -22.15     24.00
   25.2805     58.41     59.27    -22.36     24.00
   25.2906     56.81     59.19    -23.88     24.00
   25.3008     57.49     59.10    -23.11     24.00
   25.3110     57.91     59.02    -22.61     24.00
   25.3211     58.14     58.94    -22.30     24.00
   25.3313     57.21     58.85    -23.14     24.00
   25.3415     57.88     58.77    -22.39     24.00
   25.3516     56.97     58.69    -23.22     24.00
   25.3618     57.48     58.60    -22.62     24.00
   25.3720     57.41     58.52    -22.61     24.00
   25.3821     56.08     58.44    -23.86     24.00
   25.3923     57.70     58.35    -22.15     24.00
   25.4024     56.02     58.27    -23.75     24.00
   25.4126     56.82     58.19    -22.87     24.00
   25.4228     57.46     58.10    -22.14     24.00
   25.4329     56.60     58.02    -22.92     24.00
   25.4431     56.56     57.94    -22.88     24.00
   25.4533     57.59     57.86    -21.77     24.00
   25.4634     57.56     57.77    -21.71     24.00
   25.4736     56.73     57.69    -22.46     24.00
   25.4838     56.86     57.61    -22.25     24.00
   25.4939     55.92     57.53    -23.11     24.00
   25.5041     55.68     57.44    -23.26     24.00
   25.5143     55.87     57.36    -22.99     24.00
   25.5244     54.99     57.28    -23.79     24.00
   25.5346     55.87     57.20    -22.83     24.00
   25.5448     56.68     57.12    -21.94     24.00
   25.5549     56.67     57.03    -21.86     24.00
   25.5651     56.84     56.95    -21.61     24.00
   25.5752     56.12     56.87    -22.25     24.00
   25.5854     56.98     56.79    -21.31     24.00
   25.5956     56.34     56.71    -21.87     24.00
   25.6057     56.13     56.63    -22.00     24.00
   25.6159     55.41     56.55    -22.64     24.00
   25.6261     55.40     56.46    -22.56     24.00
   25.6362     56.41     56.38    -21.47     24.00
   25.6464     56.54     56.30    -21.26     24.00
   25.6566     56.15     56.22    -21.57     24.00
   25.6667     54.68     56.14    -22.96     24.00
   25.6769     54.76     56.06    -22.80     24.00
   25.6871     55.09     55.98    -22.39     24.00
   25.6972     56.62     55.90    -20.78     24.00
   25.7074     56.19     55.82    -21.13     24.00
   25.7175     55.55     55.74    -21.69     24.00
   25.7277     55.37     55.66    -21.79     24.00
   25.7379     54.96     55.58    -22.12     24.00
   25.7480     55.74     55.50    -21.26     24.00
   25.7582     55.13     55.42    -21.79     24.00
   25.7684     54.81     55.34    -22.03     24.00
   25.7785     54.38     55.26    -22.38     24.00
   25.7887     54.66     55.18    -22.02     24.00
   25.7989     54.29     55.10    -22.31     24.00
   25.8090     55.24     55.02    -21.28     24.00
   25.8192     53.73     54.94    -22.71     24.00
   25.8294     53.59     54.87    -22.78     24.00
   25.8395     54.76     54.79    -21.53     24.00
   25.8497     54.62     54.71    -21.59     24.00
   25.8599     54.90     54.63    -21.23     24.00
   25.8700     54.27     54.55    -21.78     24.00
   25.8802     53.91     54.47    -22.06     24.00
   25.8903     54.54     54.39    -21.35     24.00
   25.9005     54.53     54.32    -21.29     24.00
   25.9107     53.82     54.24    -21.92     24.00
   25.9208     53.97     54.16    -21.69     24.00
   25.9310     53.60     54.08    -21.98     24.00
   25.9412     54.65     54.01    -20.86     24.00
   25.9513     53.87     53.93    -21.56     24.00
   25.9615     53.52     53.85    -21.83     24.00
   25.9717     53.95     53.77    -21.32     24.00
   25.9818     52.59     53.70    -22.61     24.00
   25.9920     52.98     53.62    -22.14     24.00
   26.0022     54.30     53.54    -20.74     24.00
   26.0123     53.23     53.47    -21.74     24.00
   26.0225     53.77     53.39    -21.12     24.00
   26.0326     53.31     53.31    -21.50     24.00
   26.0428     53.10     53.24    -21.64     24.00
   26.0530     54.47     53.16    -20.19     24.00
   26.0631     53.21     53.09    -21.38     24.00
   26.0733     53.71     53.01    -20.80     24.00
   26.0835     52.66     52.93    -21.77     24.00
   26.0936     52.88     52.86    -21.48     24.00
   26.1038     52.54     52.78    -21.74     24.00
   26.1140     52.66     52.71    -21.55     24.00
   26.1241     53.56     52.63    -20.57     24.00
   26.1343     52.90     52.56    -21.16     24.00
   26.1445     53.81     52.48    -20.17     24.00
   26.1546     52.26     52.41    -21.65     24.00
   26.1648     53.01     52.34    -20.83     24.00
   26.1750     52.85     52.26    -20.91     24.00
   26.1851     52.82     52.19    -20.87     24.00
   26.1953     52.25     52.11    -21.36     24.00
   26.2054     52.15     52.04    -21.39     24.00
   26.2156     51.62     51.97    -21.85     24.00
   26.2258     51.83     51.89    -21.56     24.00
   26.2359     52.57     51.82    -20.75     24.00
   26.2461     51.96     51.75    -21.29     24.00
   26.2563     52.48     51.68    -20.70     24.00
   26.2664     51.32     51.60    -21.78     24.00
   26.2766     51.92     51.53    -21.11     24.00
   26.2868     50.87     51.46    -22.09     24.00
   26.2969     51.92     51.39    -20.97     24.00
   26.3071     51.49     51.32    -21.33     24.00
   26.3173     50.76     51.25    -21.99     24.00
   26.3274     51.10     51.18    -21.58     24.00
   26.3376     50.05     51.11    -22.56     24.00
   26.3477     52.31     51.04    -20.23     24.00
   26.3579     51.14     50.97    -21.33     24.00
   26.3681     52.20     50.90    -20.20     24.00
   26.3782     51.41     50.83    -20.92     24.00
   26.3884     51.91     50.76    -20.35     24.00
   26.3986     51.31     50.69    -20.88     24.00
   26.4087     51.42     50.62    -20.70     24.00
   26.4189     52.05     50.55    -20.00     24.00
   26.4291     52.23     50.48    -19.75     24.00
   26.4392     51.80     50.42    -20.12     24.00
   26.4494     52.03     50.35    -19.82     24.00
   26.4596     50.89     50.28    -20.89     24.00
   26.4697     51.71     50.22    -20.01     24.00
   26.4799     51.62     50.15    -20.03     24.00
   26.4901     51.08     50.08    -20.50     24.00
   26.5002     50.82     50.02    -20.70     24.00
   26.5104     50.73     49.95    -20.72     24.00
   26.5205     50.40     49.89    -20.99     24.00
   26.5307     50.54     49.82    -20.78     24.00
   26.5409     50.51     49.76    -20.75     24.00
   26.5510     50.50     49.70    -20.70     24.00
   26.5612     51.44     49.63    -19.69     24.00
   26.5714     50.93     49.57    -20.14     24.00
   26.5815     49.78     49.51    -21.23     24.00
   26.5917     50.71     49.45    -20.24     24.00
   26.6019     51.20     49.39    -19.69     24.00
   26.6120     50.21     49.33    -20.62     24.00
   26.6222     49.95     49.27    -20.82     24.00
   26.6324     50.05     49.21    -20.66     24.00
   26.6425     50.79     49.15    -19.86     24.00
   26.6527     50.37     49.09    -20.22     24.00
   26.6628     51.18     49.04    -19.36     24.00
   26.6730     50.75     48.98    -19.73     24.00
   26.6832     51.00     48.92    -19.42     24.00
   26.6933     50.34     48.87    -20.03     24.00
   26.7035     50.73     48.81    -19.58     24.00
   26.7137     49.05     48.76    -21.21     24.00
   26.7238     49.42     48.71    -20.79     24.00
   26.7340     51.52     48.65    -18.63     24.00
   26.7442     49.71     48.60    -20.39     24.00
   26.7543     50.67     48.55    -19.38     24.00
   26.7645     49.57     48.50    -20.43     24.00
   26.7747     49.24     48.45    -20.71     24.00
   26.7848     50.90     48.40    -19.00     24.00
   26.7950     49.43     48.36    -20.43     24.00
   26.8052     49.82     48.31    -19.99     24.00
   26.8153     50.09     48.26    -19.67     24.00
   26.8255     49.87     48.22    -19.85     24.00
   26.8356     49.88     48.18    -19.80     24.00
   26.8458     50.01     48.13    -19.62     24.00
   26.8560     48.70     48.09    -20.89     24.00
   26.8661     49.76     48.05    -19.79     24.00
   26.8763     49.87     48.01    -19.64     24.00
   26.8865     49.17     47.98    -20.31     24.00
   26.8966     50.28     47.94    -19.16     24.00
   26.9068     50.38     47.91    -19.03     24.00
   26.9170     48.68     47.87    -20.69     24.00
   26.9271     49.63     47.84    -19.71     24.00
   26.9373     49.25     47.81    -20.06     24.00
   26.9475     48.72     47.78    -20.56     24.00
   26.9576     49.38     47.75    -19.87     24.00
   26.9678     49.35     47.72    -19.87     24.00
   26.9779     49.21     47.70    -19.99     24.00
   26.9881     49.65     47.67    -19.52     24.00
   26.9983     48.38     47.65    -20.77     24.00
   27.0084     49.25     47.63    -19.88     24.00
   27.0186     47.99     47.61    -21.12     24.00
   27.0288     49.26     47.59    -19.83     24.00
   27.0389     48.80     47.58    -20.28     24.00
   27.0491     49.42     47.56    -19.64     24.00
   27.0593     49.63     47.55    -19.42     24.00
   27.0694     49.76     47.54    -19.28     24.00
   27.0796     49.54     47.53    -19.49     24.00
   27.0898     49.12     47.52    -19.90     24.00
   27.0999     48.92     47.52    -20.10     24.00
   27.1101     49.43     47.52    -19.59     24.00
   27.1202     49.48     47.51    -19.53     24.00
   27.1304     49.32     47.52    -19.70     24.00
   27.1406     48.58     47.52    -20.44     24.00
   27.1507     48.53     47.53    -20.50     24.00
   27.1609     49.57     47.53    -19.46     24.00
   27.1711     48.04     47.54    -21.00     24.00
   27.1812     50.26     47.56    -18.80     24.00
   27.1914     48.74     47.57    -20.33     24.00
   27.2016     49.16     47.59    -19.93     24.00
   27.2117     48.89     47.61    -20.22     24.00
   27.2219     48.76     47.63    -20.37     24.00
   27.2321     49.30     47.65    -19.85     24.00
   27.2422     48.80     47.68    -20.38     24.00
   27.2524     49.91     47.71    -19.30     24.00
   27.2626     49.62     47.74    -19.62     24.00
   27.2727     49.93     47.77    -19.34     24.00
   27.2829     48.85     47.81    -20.46     24.00
   27.2930     50.59     47.85    -18.76     24.00
   27.3032     49.43     47.89    -19.96     24.00
   27.3134     48.95     47.94    -20.49     24.00
   27.3235     49.23     47.99    -20.26     24.00
   27.3337     49.54     48.04    -20.00     24.00
   27.3439     48.77     48.09    -20.82     24.00
   27.3540     49.32     48.15    -20.33     24.00
   27.3642     50.19     48.21    -19.52     24.00
   27.3744     49.80     48.27    -19.97     24.00
   27.3845     48.82     48.34    -21.02     24.00
   27.3947     49.60     48.41    -20.31     24.00
   27.4049     48.55     48.48    -21.43     24.00
   27.4150     48.77     48.55    -21.28     24.00
   27.4252     49.32     48.63    -20.81     24.00
   27.4353     49.85     48.71    -20.36     24.00
   27.4455     49.45     48.79    -20.84     24.00
   27.4557     49.64     48.88    -20.74     24.00
   27.4658     49.40     48.97    -21.07     24.00
   27.4760     49.45     49.06    -21.11     24.00
   27.4862     48.89     49.16    -21.77     24.00
   27.4963     49.92     49.26    -20.84     24.00
   27.5065     49.47     49.36    -21.39     24.00
   27.5167     50.03     49.47    -20.94     24.00
   27.5268     48.80     49.57    -22.27     24.00
   27.5370     49.82     49.68    -21.36     24.00
   27.5472     50.12     49.80    -21.18     24.00
   27.5573     49.35     49.92    -22.07     24.00
   27.5675     51.23     50.04    -20.31     24.00
   27.5777     51.18     50.16    -20.48     24.00
   27.5878     50.17     50.29    -21.62     24.00
   27.5980     49.21     50.42    -22.71     24.00
   27.6081     49.63     50.55    -22.42     24.00
   27.6183     50.32     50.68    -21.86     24.00
   27.6285     50.51     50.82    -21.81     24.00
   27.6386     50.34     50.96    -22.12     24.00
   27.6488     50.58     51.11    -22.03     24.00
   27.6590     51.55     51.25    -21.20     24.00
   27.6691     50.10     51.40    -22.80     24.00
   27.6793     51.82     51.56    -21.24     24.00
   27.6895     50.80     51.71    -22.41     24.00
   27.6996     50.90     51.87    -22.47     24.00
   27.7098     50.85     52.03    -22.68     24.00
   27.7200     50.97     52.19    -22.72     24.00
   27.7301     50.71     52.35    -23.14     24.00
   27.7403     51.76     52.52    -22.26     24.00
   27.7504     51.85     52.69    -22.34     24.00
   27.7606     52.01     52.86    -22.35     24.00
   27.7708     52.18     53.03    -22.35     24.00
   27.7809     51.77     53.21    -22.94     24.00
   27.7911     51.78     53.39    -23.11     24.00
   27.8013     52.63     53.57    -22.44     24.00
   27.8114     51.75     53.75    -23.50     24.00
   27.8216     52.04     53.93    -23.39     24.00
   27.8318     53.09     54.11    -22.52     24.00
   27.8419     52.88     54.30    -22.92     24.00
   27.8521     53.49     54.48    -22.49     24.00
   27.8623     52.66     54.67    -23.51     24.00
   27.8724     54.14     54.86    -22.22     24.00
   27.8826     53.52     55.05    -23.03     24.00
   27.8928     53.81     55.24    -22.93     24.00
   27.9029     54.00     55.43    -22.93     24.00
   27.9131     55.27     55.63    -21.86     24.00
   27.9232     54.26     55.82    -23.06     24.00
   27.9334     53.96     56.01    -23.55     24.00
   27.9436     54.37     56.21    -23.34     24.00
   27.9537     55.15     56.40    -22.75     24.00
   27.9639     54.40     56.60    -23.70     24.00
   27.9741     55.34     56.79    -22.95     24.00
   27.9842     55.71     56.98    -22.77     24.00
   27.9944     56.83     57.18    -21.85     24.00
   28.0046     55.10     57.37    -23.77     24.00
   28.0147     56.84     57.56    -22.22     24.00
   28.0249     56.64     57.75    -22.61     24.00
   28.0351     56.26     57.94    -23.18     24.00
   28.0452     56.93     58.13    -22.70     24.00
   28.0554     56.54     58.32    -23.28     24.00
   28.0655     57.51     58.50    -22.49     24.00
   28.0757     57.55     58.69    -22.64     24.00
   28.0859     57.43     58.87    -22.94     24.00
   28.0960     58.44     59.05    -22.11     24.00
   28.1062     58.60     59.23    -22.13     24.00
   28.1164     57.71     59.41    -23.20     24.00
   28.1265     58.96     59.58    -22.12     24.00
   28.1367     59.38     59.76    -21.88     24.00
   28.1469     60.04     59.93    -21.39     24.00
   28.1570     59.00     60.09    -22.59     24.00
   28.1672     59.58     60.26    -22.18     24.00
   28.1774     59.44     60.42    -22.48     24.00
   28.1875     60.12     60.58    -21.96     24.00
   28.1977     59.92     60.73    -22.31     24.00
   28.2079     61.34     60.88    -21.04     24.00
   28.2180     60.10     61.03    -22.43     24.00
   28.2282     61.18     61.17    -21.49     24.00
   28.2383     61.87     61.31    -20.94     24.00
   28.2485     62.14     61.45    -20.81     24.00
   28.2587     62.12     61.58    -20.96     24.00
   28.2688     62.27     61.71    -20.94     24.00
   28.2790     61.60     61.83    -21.73     24.00
   28.2892     62.20     61.95    -21.25     24.00
   28.2993     62.74     62.06    -20.82     24.00
   28.3095     62.80     62.17    -20.87     24.00
   28.3197     64.66     62.27    -19.11     24.00
   28.3298     63.46     62.37    -20.41     24.00
   28.3400     63.21     62.46    -20.75     24.00
   28.3502     63.25     62.55    -20.80     24.00
   28.3603     64.12     62.63    -20.01     24.00
   28.3705     64.30     62.71    -19.91     24.00
   28.3806     64.60     62.78    -19.68     24.00
   28.3908     65.21     62.85    -19.14     24.00
   28.4010     64.28     62.91    -20.13     24.00
   28.4111     64.60     62.96    -19.86     24.00
   28.4213     64.34     63.01    -20.17     24.00
   28.4315     64.40     63.05    -20.15     24.00
   28.4416     65.98     63.09    -18.61     24.00
   28.4518     64.73     63.12    -19.89     24.00
   28.4620     65.11     63.14    -19.53     24.00
   28.4721     65.11     63.16    -19.55     24.00
   28.4823     63.96     63.17    -20.71     24.00
   28.4925     64.16     63.18    -20.52     24.00
   28.5026     65.09     63.18    -19.59     24.00
   28.5128     64.04     63.17    -20.63     24.00
   28.5230     64.70     63.16    -19.96     24.00
   28.5331     64.01     63.14    -20.63     24.00
   28.5433     64.66     63.11    -19.95     24.00
   28.5534     64.49     63.08    -20.09     24.00
   28.5636     64.77     63.04    -19.77     24.00
   28.5738     63.77     63.00    -20.73     24.00
   28.5839     63.81     62.95    -20.64     24.00
   28.5941     64.84     62.89    -19.55     24.00
   28.6043     64.49     62.83    -19.84     24.00
   28.6144     63.03     62.76    -21.23     24.00
   28.6246     63.41     62.69    -20.78     24.00
   28.6348     63.68     62.61    -20.43     24.00
   28.6449     62.93     62.52    -21.09     24.00
   28.6551     63.10     62.43    -20.83     24.00
   28.6653     62.77     62.34    -21.07     24.00
   28.6754     62.65     62.23    -21.08     24.00
   28.6856     63.67     62.13    -19.96     24.00
   28.6957     62.66     62.01    -20.85     24.00
   28.7059     62.29     61.90    -21.11     24.00
   28.7161     62.36     61.77    -20.91     24.00
   28.7262     62.29     61.64    -20.85     24.00
   28.7364     60.89     61.51    -22.12     24.00
   28.7466     62.85     61.37    -20.02     24.00
   28.7567     62.30     61.23    -20.43     24.00
   28.7669     61.37     61.08    -21.21     24.00
   28.7771     61.55     60.93    -20.88     24.00
   28.7872     61.04     60.78    -21.24     24.00
   28.7974     61.03     60.62    -21.09     24.00
   28.8076     60.86     60.45    -21.09     24.00
   28.8177     60.88     60.29    -20.91     24.00
   28.8279     60.39     60.12    -21.23     24.00
   28.8381     60.60     59.94    -20.84     24.00
   28.8482     59.94     59.76    -21.32     24.00
   28.8584     58.73     59.58    -22.35     24.00
   28.8685     57.27     59.40    -23.63     24.00
   28.8787     59.92     59.21    -20.79     24.00
   28.8889     58.64     59.02    -21.88     24.00
   28.8990     58.65     58.83    -21.68     24.00
   28.9092     58.62     58.63    -21.51     24.00
   28.9194     57.34     58.43    -22.59     24.00
   28.9295     58.27     58.23    -21.46     24.00
   28.9397     57.98     58.03    -21.55     24.00
   28.9499     57.34     57.83    -21.99     24.00
   28.9600     56.84     57.62    -22.28     24.00
   28.9702     56.97     57.41    -21.94     24.00
   28.9804     56.20     57.20    -22.50     24.00
   28.9905     56.84     56.99    -21.65     24.00
   29.0007     55.65     56.78    -22.63     24.00
   29.0108     56.04     56.57    -22.03     24.00
   29.0210     55.26     56.35    -22.59     24.00
   29.0312     55.60     56.14    -22.04     24.00
   29.0413     55.54     55.92    -21.88     24.00
   29.0515     54.03     55.71    -23.18     24.00
   29.0617     55.55     55.49    -21.44     24.00
   29.0718     52.99     55.27    -23.78     24.00
   29.0820     53.31     55.05    -23.24     24.00
   29.0922     54.19     54.84    -22.15     24.00
   29.1023     53.70     54.62    -22.42     24.00
   29.1125     53.51     54.40    -22.39     24.00
   29.1227     53.32     54.18    -22.36     24.00
   29.1328     53.47     53.97    -22.00     24.00
   29.1430     52.90     53.75    -22.35     24.00
   29.1531     52.96     53.53    -22.07     24.00
   29.1633     51.82     53.32    -23.00     24.00
   29.1735     51.96     53.10    -22.64     24.00
   29.1836     51.96     52.89    -22.43     24.00
   29.1938     52.38     52.68    -21.80     24.00
   29.2040     51.49     52.46    -22.47     24.00
   29.2141     51.80     52.26    -21.96     24.00
   29.2243     50.83     52.05    -22.72     24.00
   29.2345     50.55     51.84    -22.79     24.00
   29.2446     51.38     51.63    -21.75     24.00
   29.2548     50.87     51.43    -22.06     24.00
   29.2650     50.59     51.22    -22.13     24.00
   29.2751     50.32     51.02    -22.20     24.00
   29.2853     49.65     50.82    -22.67     24.00
   29.2955     49.59     50.62    -22.53     24.00
   29.3056     50.70     50.42    -21.22     24.00
   29.3158     49.37     50.23    -22.36     24.00
   29.3259     49.01     50.04    -22.53     24.00
   29.3361     48.65     49.84    -22.69     24.00
   29.3463     48.34     49.66    -22.82     24.00
   29.3564     47.59     49.47    -23.38     24.00
   29.3666     49.00     49.28    -21.78     24.00
   29.3768     48.73     49.10    -21.87     24.00
   29.3869     48.85     48.92    -21.57     24.00
   29.3971     48.16     48.74    -22.08     24.00
   29.4073     47.87     48.56    -22.19     24.00
   29.4174     47.56     48.39    -22.33     24.00
   29.4276     48.75     48.22    -20.97     24.00
   29.4378     47.57     48.05    -21.98     24.00
   29.4479     47.31     47.88    -22.07     24.00
   29.4581     47.88     47.72    -21.34     24.00
   29.4682     46.96     47.56    -22.10     24.00
   29.4784     47.68     47.40    -21.22     24.00
   29.4886     47.76     47.24    -20.98     24.00
   29.4987     45.79     47.08    -22.79     24.00
   29.5089     46.79     46.93    -21.64     24.00
   29.5191     46.67     46.78    -21.61     24.00
   29.5292     46.69     46.63    -21.44     24.00
   29.5394     46.62     46.49    -21.37     24.00
   29.5496     46.52     46.34    -21.32     24.00
   29.5597     45.85     46.20    -21.85     24.00
   29.5699     45.73     46.06    -21.83     24.00
   29.5801     46.11     45.92    -21.31     24.00
   29.5902     45.21     45.79    -22.08     24.00
   29.6004     45.33     45.66    -21.83     24.00
   29.6106     45.97     45.53    -21.06     24.00
   29.6207     46.35     45.40    -20.55     24.00
   29.6309     45.20     45.28    -21.58     24.00
   29.6410     45.89     45.15    -20.76     24.00
   29.6512     45.40     45.03    -21.13     24.00
   29.6614     44.65     44.91    -21.76     24.00
   29.6715     45.80     44.80    -20.50     24.00
   29.6817     45.05     44.68    -21.13     24.00
   29.6919     44.90     44.57    -21.17     24.00
   29.7020     44.62     44.46    -21.34     24.00
   29.7122     44.48     44.35    -21.37     24.00
   29.7224     45.82     44.24    -19.92     24.00
   29.7325     44.62     44.14    -21.02     24.00
   29.7427     44.31     44.03    -21.22     24.00
   29.7529     44.02     43.93    -21.41     24.00
   29.7630     44.53     43.83    -20.80     24.00
   29.7732     43.84     43.74    -21.40     24.00
   29.7833     44.24     43.64    -20.90     24.00
   29.7935     44.26     43.55    -20.79     24.00
   29.8037     43.52     43.45    -21.43     24.00
   29.8138     43.98     43.36    -20.88     24.00
   29.8240     43.53     43.27    -21.24     24.00
   29.8342     44.20     43.19    -20.49     24.00
   29.8443     43.19     43.10    -21.41     24.00
   29.8545     44.10     43.01    -20.41     24.00
   29.8647     43.14     42.93    -21.29     24.00
   29.8748     43.79     42.85    -20.56     24.00
   29.8850     44.23     42.77    -20.04     24.00
   29.8952     44.16     42.69    -20.03     24.00
   29.9053     44.35     42.61    -19.76     24.00
   29.9155     43.59     42.53    -20.44     24.00
   29.9257     44.74     42.46    -19.22     24.00
   29.9358     43.71     42.38    -20.17     24.00
   29.9460     44.14     42.31    -19.67     24.00
   29.9561     43.66     42.24    -20.08     24.00
   29.9663     43.22     42.16    -20.44     24.00
   29.9765     42.02     42.09    -21.57     24.00
   29.9866     43.01     42.02    -20.51     24.00
   29.9968     42.73     41.95    -20.72     24.00
   30.0070     43.37     41.88    -20.01     24.00
   30.0171     43.88     41.82    -19.44     24.00
   30.0273     42.82     41.75    -20.43     24.00
   30.0375     42.16     41.68    -21.02     24.00
   30.0476     42.84     41.62    -20.28     24.00
   30.0578     42.75     41.56    -20.31     24.00
   30.0680     43.48     41.49    -19.51     24.00
   30.0781     42.70     41.43    -20.23     24.00
   30.0883     43.13     41.37    -19.74     24.00
   30.0984     42.83     41.30    -19.97     24.00
   30.1086     41.90     41.24    -20.84     24.00
   30.1188     42.07     41.18    -20.61     24.00
   30.1289     43.25     41.12    -19.37     24.00
   30.1391     41.98     41.06    -20.58     24.00
   30.1493     41.86     41.00    -20.64     24.00
   30.1594     41.26     40.94    -21.18     24.00
   30.1696     41.21     40.88    -21.17     24.00
   30.1798     42.33     40.82    -19.99     24.00
   30.1899     41.95     40.76    -20.31     24.00
   30.2001     41.04     40.71    -21.17     24.00
   30.2103     42.22     40.65    -19.93     24.00
   30.2204     41.60     40.59    -20.49     24.00
   30.2306     41.41     40.53    -20.62     24.00
   30.2408     41.06     40.48    -20.92     24.00
   30.2509     40.76     40.42    -21.16     24.00
   30.2611     41.44     40.36    -20.42     24.00
   30.2712     40.99     40.31    -20.82     24.00
   30.2814     40.99     40.25    -20.76     24.00
   30.2916     40.49     40.19    -21.20     24.00
   30.3017     40.30     40.14    -21.34     24.00
   30.3119     40.70     40.08    -20.88     24.00
   30.3221     41.24     40.02    -20.28     24.00
   30.3322     40.20     39.97    -21.27     24.00
   30.3424     40.20     39.91    -21.21     24.00
   30.3526     40.15     39.86    -21.21     24.00
   30.3627     40.08     39.80    -21.22     24.00
   30.3729     40.00     39.74    -21.24     24.00
   30.3831     40.00     39.69    -21.19     24.00
   30.3932     39.93     39.63    -21.20     24.00
   30.4034     39.69     39.58    -21.39     24.00
   30.4135     39.57     39.52    -21.45     24.00
   30.4237     38.45     39.46    -22.51     24.00
   30.4339     39.02     39.41    -21.89     24.00
   30.4440     39.02     39.35    -21.83     24.00
   30.4542     38.27     39.30    -22.53     24.00
   30.4644     40.38     39.24    -20.36     24.00
   30.4745     38.32     39.18    -22.36     24.00
   30.4847     39.29     39.13    -21.34     24.00
   30.4949     37.66     39.07    -22.91     24.00
   30.5050     39.19     39.01    -21.32     24.00
   30.5152     39.82     38.96    -20.64     24.00
   30.5254     37.38     38.90    -23.02     24.00
   30.5355     37.93     38.84    -22.41     24.00
   30.5457     38.73     38.79    -21.56     24.00
   30.5559     37.38     38.73    -22.85     24.00
   30.5660     37.62     38.67    -22.55     24.00
   30.5762     37.98     38.62    -22.14     24.00
   30.5863     38.72     38.56    -21.34     24.00
   30.5965     37.71     38.50    -22.29     24.00
   30.6067     37.46     38.44    -22.48     24.00
   30.6168     37.99     38.39    -21.90     24.00
   30.6270     37.55     38.33    -22.28     24.00
   30.6372     37.66     38.27    -22.11     24.00
   30.6473     38.15     38.22    -21.57     24.00
   30.6575     37.24     38.16    -22.42     24.00
   30.6677     38.16     38.10    -21.44     24.00
   30.6778     37.58     38.04    -21.96     24.00
   30.6880     37.23     37.99    -22.26     24.00
   30.6982     36.75     37.93    -22.68     24.00
   30.7083     37.57     37.87    -21.80     24.00
   30.7185     37.12     37.81    -22.19     24.00
   30.7286     36.45     37.76    -22.81     24.00
   30.7388     37.81     37.70    -21.39     24.00
   30.7490     36.83     37.64    -22.31     24.00
   30.7591     36.60     37.58    -22.48     24.00
   30.7693     37.67     37.52    -21.35     24.00
   30.7795     36.09     37.47    -22.88     24.00
   30.7896     36.34     37.41    -22.57     24.00
   30.7998     35.74     37.35    -23.11     24.00
   30.8100     36.55     37.29    -22.24     24.00
   30.8201     36.50     37.24    -22.24     24.00
   30.8303     37.20     37.18    -21.48     24.00
   30.8405     35.95     37.12    -22.67     24.00
   30.8506     35.84     37.06    -22.72     24.00
   30.8608     36.07     37.01    -22.44     24.00
   30.8710     35.52     36.95    -22.93     24.00
   30.8811     36.09     36.89    -22.30     24.00
   30.8913     36.30     36.83    -22.03     24.00
   30.9014     35.98     36.78    -22.30     24.00
   30.9116     36.59     36.72    -21.63     24.00
   30.9218     36.06     36.66    -22.10     24.00
   30.9319     35.47     36.61    -22.64     24.00
   30.9421     35.74     36.55    -22.31     24.00
   30.9523     35.82     36.49    -22.17     24.00
   30.9624     34.87     36.44    -23.07     24.00
   30.9726     35.80     36.38    -22.08     24.00
   30.9828     35.23     36.32    -22.59     24.00
   30.9929     35.24     36.27    -22.53     24.00
   31.0031     35.43     36.21    -22.28     24.00
   31.0133     35.77     36.16    -21.89     24.00
   31.0234     35.35     36.10    -22.25     24.00
   31.0336     34.87     36.05    -22.68     24.00
   31.0437     35.43     35.99    -22.06     24.00
   31.0539     35.36     35.94    -22.08     24.00
   31.0641     35.07     35.88    -22.31     24.00
   31.0742     36.23     35.83    -21.10     24.00
   31.0844     34.53     35.77    -22.74     24.00
   31.0946     35.31     35.72    -21.91     24.00
   31.1047     34.12     35.66    -23.04     24.00
   31.1149     33.77     35.61    -23.34     24.00
   31.1251     34.79     35.56    -22.27     24.00
   31.1352     35.38     35.50    -21.62     24.00
   31.1454     34.98     35.45    -21.97     24.00
   31.1556     34.54     35.40    -22.36     24.00
   31.1657     35.15     35.35    -21.70     24.00
   31.1759     34.48     35.29    -22.31     24.00
   31.1860     34.11     35.24    -22.63     24.00
   31.1962     34.91     35.19    -21.78     24.00
   31.2064     34.30     35.14    -22.34     24.00
   31.2165     35.19     35.09    -21.40     24.00
   31.2267     34.98     35.04    -21.56     24.00
   31.2369     33.98     34.99    -22.51     24.00
   31.2470     34.26     34.94    -22.18     24.00
   31.2572     34.27     34.89    -22.12     24.00
   31.2674     33.79     34.84    -22.55     24.00
   31.2775     34.30     34.79    -21.99     24.00
   31.2877     34.17     34.74    -22.07     24.00
   31.2979     34.42     34.69    -21.77     24.00
   31.3080     33.91     34.65    -22.24     24.00
   31.3182     34.30     34.60    -21.80     24.00
   31.3284     33.20     34.55    -22.85     24.00
   31.3385     33.50     34.51    -22.51     24.00
   31.3487     34.76     34.46    -21.20     24.00
   31.3588     33.66     34.41    -22.25     24.00
   31.3690     34.02     34.37    -21.85     24.00
   31.3792     34.06     34.32    -21.76     24.00
   31.3893     34.67     34.28    -21.11     24.00
   31.3995     34.49     34.23    -21.24     24.00
   31.4097     34.05     34.19    -21.64     24.00
   31.4198     33.27     34.15    -22.38     24.00
   31.4300     33.04     34.10    -22.56     24.00
   31.4402     34.02     34.06    -21.54     24.00
   31.4503     33.72     34.02    -21.80     24.00
   31.4605     33.90     33.98    -21.58     24.00
   31.4707     33.96     33.94    -21.48     24.00
   31.4808     32.91     33.90    -22.49     24.00
   31.4910     33.96     33.85    -21.39     24.00
   31.5011     33.87     33.82    -21.45     24.00
   31.5113     33.45     33.78    -21.83     24.00
   31.5215     33.90     33.74    -21.34     24.00
   31.5316     34.04     33.70    -21.16     24.00
   31.5418     33.98     33.66    -21.18     24.00
   31.5520     33.99     33.62    -21.13     24.00
   31.5621     33.30     33.58    -21.78     24.00
   31.5723     32.95     33.55    -22.10     24.00
   31.5825     33.99     33.51    -21.02     24.00
   31.5926     33.38     33.47    -21.59     24.00
   31.6028     33.18     33.44    -21.76     24.00
   31.6130     34.05     33.40    -20.85     24.00
   31.6231     33.40     33.37    -21.47     24.00
   31.6333     33.51     33.34    -21.33     24.00
   31.6435     32.99     33.30    -21.81     24.00
   31.6536     33.71     33.27    -21.06     24.00
   31.6638     33.48     33.24    -21.26     24.00
   31.6739     33.74     33.20    -20.96     24.00
   31.6841     32.87     33.17    -21.80     24.00
   31.6943     33.46     33.14    -21.18     24.00
   31.7044     33.84     33.11    -20.77     24.00
   31.7146     33.10     33.08    -21.48     24.00
   31.7248     33.20     33.05    -21.35     24.00
   31.7349     33.20     33.02    -21.32     24.00
   31.7451     32.48     32.99    -22.01     24.00
   31.7553     33.85     32.96    -20.61     24.00
   31.7654     33.10     32.94    -21.34     24.00
   31.7756     33.01     32.91    -21.40     24.00
   31.7858     32.60     32.88    -21.78     24.00
   31.7959     33.01     32.85    -21.34     24.00
   31.8061     33.17     32.83    -21.16     24.00
   31.8162     32.49     32.80    -21.81     24.00
   31.8264     32.60     32.78    -21.68     24.00
   31.8366     33.12     32.75    -21.13     24.00
   31.8467     33.02     32.73    -21.21     24.00
   31.8569     33.57     32.70    -20.63     24.00
   31.8671     32.40     32.68    -21.78     24.00
   31.8772     32.52     32.66    -21.64     24.00
   31.8874     33.40     32.64    -20.74     24.00
   31.8976     34.19     32.61    -19.92     24.00
   31.9077     32.55     32.59    -21.54     24.00
   31.9179     32.40     32.57    -21.67     24.00
   31.9281     32.61     32.55    -21.44     24.00
   31.9382     32.65     32.53    -21.38     24.00
   31.9484     33.02     32.51    -20.99     24.00
   31.9586     32.88     32.49    -21.11     24.00
   31.9687     32.68     32.47    -21.29     24.00
   31.9789     33.43     32.45    -20.52     24.00
   31.9890     33.22     32.43    -20.71     24.00
   31.9992     32.62     32.42    -21.30     24.00
   32.0094     32.23     32.40    -21.67     24.00
   32.0195     33.22     32.38    -20.66     24.00
   32.0297     32.38     32.37    -21.49     24.00
   32.0399     32.48     32.35    -21.37     24.00
   32.0500     32.51     32.33    -21.32     24.00
   32.0602     32.49     32.32    -21.33     24.00
   32.0704     31.93     32.30    -21.87     24.00
   32.0805     34.01     32.29    -19.78     24.00
   32.0907     32.44     32.28    -21.34     24.00
   32.1009     32.62     32.26    -21.14     24.00
   32.1110     32.77     32.25    -20.98     24.00
   32.1212     32.10     32.24    -21.64     24.00
   32.1313     32.62     32.22    -21.10     24.00
   32.1415     33.13     32.21    -20.58     24.00
   32.1517     33.20     32.20    -20.50     24.00
   32.1618     33.02     32.19    -20.67     24.00
   32.1720     33.01     32.17    -20.66     24.00
   32.1822     32.08     32.16    -21.58     24.00
   32.1923     33.76     32.15    -19.89     24.00
   32.2025     32.93     32.14    -20.71     24.00
   32.2127     32.90     32.13    -20.73     24.00
   32.2228     32.68     32.12    -20.94     24.00
   32.2330     32.40     32.11    -21.21     24.00
   32.2432     31.88     32.10    -21.72     24.00
   32.2533     32.28     32.10    -21.32     24.00
   32.2635     33.54     32.09    -20.05     24.00
   32.2737     32.38     32.08    -21.20     24.00
   32.2838     32.10     32.07    -21.47     24.00
   32.2940     32.74     32.06    -20.82     24.00
   32.3041     32.57     32.05    -20.98     24.00
   32.3143     32.15     32.05    -21.40     24.00
   32.3245     32.76     32.04    -20.78     24.00
   32.3346     33.42     32.03    -20.11     24.00
   32.3448     32.17     32.03    -21.36     24.00
   32.3550     32.49     32.02    -21.03     24.00
   32.3651     32.55     32.01    -20.96     24.00
   32.3753     32.98     32.01    -20.53     24.00
   32.3855     32.83     32.00    -20.67     24.00
   32.3956     32.70     32.00    -20.80     24.00
   32.4058     32.82     31.99    -20.67     24.00
   32.4160     32.68     31.99    -20.81     24.00
   32.4261     32.89     31.98    -20.59     24.00
   32.4363     32.07     31.98    -21.41     24.00
   32.4464     32.66     31.97    -20.81     24.00
   32.4566     31.83     31.97    -21.64     24.00
   32.4668     32.33     31.96    -21.13     24.00
   32.4769     32.39     31.96    -21.07     24.00
   32.4871     32.02     31.95    -21.43     24.00
   32.4973     32.91     31.95    -20.54     24.00
   32.5074     33.39     31.95    -20.06     24.00
   32.5176     32.07     31.94    -21.37     24.00
   32.5278     32.47     31.94    -20.97     24.00
   32.5379     32.46     31.94    -20.98     24.00
   32.5481     32.04     31.93    -21.39     24.00
   32.5583     32.35     31.93    -21.08     24.00
   32.5684     31.84     31.92    -21.58     24.00
   32.5786     31.40     31.92    -22.02     24.00
   32.5888     32.53     31.92    -20.89     24.00
   32.5989     32.87     31.92    -20.55     24.00
   32.6091     32.71     31.91    -20.70     24.00
   32.6192     32.39     31.91    -21.02     24.00
   32.6294     32.15     31.91    -21.26     24.00
   32.6396     32.20     31.90    -21.20     24.00
   32.6497     32.24     31.90    -21.16     24.00
   32.6599     33.07     31.90    -20.33     24.00
   32.6701     32.47     31.89    -20.92     24.00
   32.6802     33.07     31.89    -20.32     24.00
   32.6904     32.62     31.89    -20.77     24.00
   32.7006     31.10     31.88    -22.28     24.00
   32.7107     32.06     31.88    -21.32     24.00
   32.7209     32.88     31.88    -20.50     24.00
   32.7311     31.29     31.88    -22.09     24.00
   32.7412     32.32     31.87    -21.05     24.00
   32.7514     33.28     31.87    -20.09     24.00
   32.7615     31.76     31.87    -21.61     24.00
   32.7717     33.29     31.86    -20.07     24.00
   32.7819     32.85     31.86    -20.51     24.00
   32.7920     31.30     31.85    -22.05     24.00
   32.8022     32.45     31.85    -20.90     24.00
   32.8124     33.28     31.85    -20.07     24.00
   32.8225     31.62     31.84    -21.72     24.00
   32.8327     32.61     31.84    -20.73     24.00
   32.8429     31.98     31.84    -21.36     24.00
   32.8530     31.89     31.83    -21.44     24.00
   32.8632     31.88     31.83    -21.45     24.00
   32.8734     32.08     31.82    -21.24     24.00
   32.8835     32.60     31.82    -20.72     24.00
   32.8937     32.19     31.81    -21.12     24.00
   32.9039     32.28     31.81    -21.03     24.00
   32.9140     31.77     31.80    -21.53     24.00
   32.9242     31.45     31.80    -21.85     24.00
   32.9343     32.54     31.79    -20.75     24.00
   32.9445     32.66     31.79    -20.63     24.00
   32.9547     31.98     31.78    -21.30     24.00
   32.9648     32.26     31.78    -21.02     24.00
   32.9750     32.32     31.77    -20.95     24.00
   32.9852     31.95     31.76    -21.31     24.00
   32.9953     32.20     31.76    -21.06     24.00
   33.0055     32.41     31.75    -20.84     24.00
   33.0157     32.48     31.74    -20.76     24.00
   33.0258     31.38     31.74    -21.86     24.00
   33.0360     31.82     31.73    -21.41     24.00
   33.0462     32.75     31.72    -20.47     24.00
   33.0563     33.01     31.71    -20.20     24.00
   33.0665     32.50     31.71    -20.71     24.00
   33.0766     31.95     31.70    -21.25     24.00
   33.0868     31.85     31.69    -21.34     24.00
   33.0970     32.18     31.68    -21.00     24.00
   33.1071     32.83     31.67    -20.34     24.00
   33.1173     31.55     31.66    -21.61     24.00
   33.1275     32.80     31.65    -20.35     24.00
   33.1376     32.19     31.64    -20.95     24.00
   33.1478     32.60     31.63    -20.53     24.00
   33.1580     32.30     31.62    -20.82     24.00
   33.1681     32.51     31.61    -20.60     24.00
   33.1783     31.48     31.60    -21.62     24.00
   33.1885     31.90     31.59    -21.19     24.00
   33.1986     32.93     31.58    -20.15     24.00
   33.2088     32.91     31.57    -20.16     24.00
   33.2189     31.96     31.56    -21.10     24.00
   33.2291     32.22     31.54    -20.82     24.00
   33.2393     32.18     31.53    -20.85     24.00
   33.2494     32.35     31.52    -20.67     24.00
   33.2596     33.29     31.51    -19.72     24.00
   33.2698     32.49     31.49    -20.50     24.00
   33.2799     32.87     31.48    -20.11     24.00
   33.2901     32.90     31.47    -20.07     24.00
   33.3003     32.35     31.45    -20.60     24.00
   33.3104     32.62     31.44    -20.32     24.00
   33.3206     32.18     31.42    -20.74     24.00
   33.3308     32.52     31.41    -20.39     24.00
   33.3409     32.54     31.39    -20.35     24.00
   33.3511     33.44     31.38    -19.44     24.00
   33.3613     32.77     31.36    -20.09     24.00
   33.3714     32.45     31.34    -20.39     24.00
   33.3816     32.46     31.33    -20.37     24.00
   33.3917     33.09     31.31    -19.72     24.00
   33.4019     32.62     31.29    -20.17     24.00
   33.4121     32.18     31.28    -20.60     24.00
   33.4222     32.27     31.26    -20.49     24.00
   33.4324     32.72     31.24    -20.02     24.00
   33.4426     32.32     31.22    -20.40     24.00
   33.4527     33.20     31.20    -19.50     24.00
   33.4629     32.52     31.18    -20.16     24.00
   33.4731     32.28     31.17    -20.39     24.00
   33.4832     32.78     31.15    -19.87     24.00
   33.4934     32.44     31.13    -20.19     24.00
   33.5036     32.19     31.11    -20.42     24.00
   33.5137     32.37     31.09    -20.22     24.00
   33.5239     32.71     31.06    -19.85     24.00
   33.5340     32.46     31.04    -20.08     24.00
   33.5442     32.57     31.02    -19.95     24.00
   33.5544     32.45     31.00    -20.05     24.00
   33.5645     32.30     30.98    -20.18     24.00
   33.5747     31.68     30.96    -20.78     24.00
   33.5849     32.04     30.94    -20.40     24.00
   33.5950     31.79     30.91    -20.62     24.00
   33.6052     30.88     30.89    -21.51     24.00
   33.6154     32.05     30.87    -20.32     24.00
   33.6255     31.98     30.84    -20.36     24.00
   33.6357     30.70     30.82    -21.62     24.00
   33.6459     31.92     30.80    -20.38     24.00
   33.6560     32.18     30.77    -20.09     24.00
   33.6662     31.78     30.75    -20.47     24.00
   33.6764     31.71     30.72    -20.51     24.00
   33.6865     31.15     30.70    -21.05     24.00
   33.6967     30.85     30.67    -21.32     24.00
   33.7068     32.01     30.65    -20.14     24.00
   33.7170     30.61     30.62    -21.51     24.00
   33.7272     30.82     30.59    -21.27     24.00
   33.7373     31.62     30.57    -20.45     24.00
   33.7475     30.57     30.54    -21.47     24.00
   33.7577     31.01     30.52    -21.01     24.00
   33.7678     30.44     30.49    -21.55     24.00
   33.7780     30.11     30.46    -21.85     24.00
   33.7882     29.87     30.43    -22.06     24.00
   33.7983     30.78     30.41    -21.13     24.00
   33.8085     30.70     30.38    -21.18     24.00
   33.8187     30.43     30.35    -21.42     24.00
   33.8288     30.09     30.32    -21.73     24.00
   33.8390     30.69     30.29    -21.10     24.00
   33.8491     30.27     30.27    -21.50     24.00
   33.8593     30.23     30.24    -21.51     24.00
   33.8695     29.37     30.21    -22.34     24.00
   33.8796     29.52     30.18    -22.16     24.00
   33.8898     29.62     30.15    -22.03     24.00
   33.9000     29.12     30.12    -22.50     24.00
   33.9101     29.73     30.09    -21.86     24.00
   33.9203     30.23     30.06    -21.33     24.00
   33.9305     29.37     30.03    -22.16     24.00
   33.9406     29.26     30.00    -22.24     24.00
   33.9508     29.71     29.97    -21.76     24.00
   33.9610     29.30     29.94    -22.14     24.00
   33.9711     28.84     29.91    -22.57     24.00
   33.9813     29.38     29.88    -22.00     24.00
   33.9915     29.10     29.85    -22.25     24.00
   34.0016     28.15     29.82    -23.17     24.00
   34.0118     29.31     29.79    -21.98     24.00
   34.0219     28.49     29.76    -22.77     24.00
   34.0321     29.52     29.73    -21.71     24.00
   34.0423     28.85     29.69    -22.34     24.00
   34.0524     29.09     29.66    -22.07     24.00
   34.0626     28.71     29.63    -22.42     24.00
   34.0728     29.21     29.60    -21.89     24.00
   34.0829     28.40     29.57    -22.67     24.00
   34.0931     28.38     29.54    -22.66     24.00
   34.1033     28.59     29.50    -22.41     24.00
   34.1134     27.22     29.47    -23.75     24.00
   34.1236     28.71     29.44    -22.23     24.00
   34.1338     28.14     29.41    -22.77     24.00
   34.1439     27.79     29.37    -23.08     24.00
   34.1541     28.21     29.34    -22.63     24.00
   34.1642     27.88     29.31    -22.93     24.00
   34.1744     28.14     29.28    -22.64     24.00
   34.1846     28.32     29.24    -22.42     24.00
   34.1947     27.81     29.21    -22.90     24.00
   34.2049     27.51     29.18    -23.17     24.00
   34.2151     27.70     29.15    -22.95     24.00
   34.2252     27.98     29.11    -22.63     24.00
   34.2354     28.07     29.08    -22.51     24.00
   34.2456     27.96     29.05    -22.59     24.00
   34.2557     27.86     29.02    -22.66     24.00
   34.2659     27.81     28.98    -22.67     24.00
   34.2761     28.01     28.95    -22.44     24.00
   34.2862     27.54     28.92    -22.88     24.00
   34.2964     27.63     28.88    -22.75     24.00
   34.3066     26.76     28.85    -23.59     24.00
   34.3167     27.09     28.82    -23.23     24.00
   34.3269     27.00     28.79    -23.29     24.00
   34.3370     27.30     28.75    -22.95     24.00
   34.3472     26.91     28.72    -23.31     24.00
   34.3574     27.50     28.69    -22.69     24.00
   34.3675     26.94     28.66    -23.22     24.00
   34.3777     27.30     28.62    -22.82     24.00
   34.3879     27.69     28.59    -22.40     24.00
   34.3980     27.02     28.56    -23.04     24.00
   34.4082     26.77     28.53    -23.26     24.00
   34.4184     27.38     28.49    -22.61     24.00
   34.4285     27.23     28.46    -22.73     24.00
   34.4387     27.02     28.43    -22.91     24.00
   34.4489     26.91     28.40    -22.99     24.00
   34.4590     27.37     28.36    -22.49     24.00
   34.4692     26.16     28.33    -23.67     24.00
   34.4793     27.21     28.30    -22.59     24.00
   34.4895     27.21     28.27    -22.56     24.00
   34.4997     27.20     28.23    -22.53     24.00
   34.5098     26.85     28.20    -22.85     24.00
   34.5200     27.07     28.17    -22.60     24.00
   34.5302     27.21     28.14    -22.43     24.00
   34.5403     26.95     28.11    -22.66     24.00
   34.5505     27.02     28.08    -22.56     24.00
   34.5607     26.48     28.04    -23.06     24.00
   34.5708     27.40     28.01    -22.11     24.00
   34.5810     26.62     27.98    -22.86     24.00
   34.5912     26.58     27.95    -22.87     24.00
   34.6013     26.70     27.92    -22.72     24.00
   34.6115     26.93     27.89    -22.46     24.00
   34.6217     26.98     27.86    -22.38     24.00
   34.6318     26.85     27.83    -22.48     24.00
   34.6420     26.90     27.79    -22.39     24.00
   34.6521     26.63     27.76    -22.63     24.00
   34.6623     26.32     27.73    -22.91     24.00
   34.6725     26.69     27.70    -22.51     24.00
   34.6826     26.38     27.67    -22.79     24.00
   34.6928     26.70     27.64    -22.44     24.00
   34.7030     26.15     27.61    -22.96     24.00
   34.7131     26.22     27.58    -22.86     24.00
   34.7233     26.18     27.55    -22.87     24.00
   34.7335     26.52     27.52    -22.50     24.00
   34.7436     25.98     27.49    -23.01     24.00
   34.7538     27.07     27.47    -21.90     24.00
   34.7640     25.55     27.44    -23.39     24.00
   34.7741     25.77     27.41    -23.14     24.00
   34.7843     26.40     27.38    -22.48     24.00
   34.7944     25.54     27.35    -23.31     24.00
   34.8046     26.23     27.32    -22.59     24.00
   34.8148     25.92     27.29    -22.87     24.00
   34.8249     27.01     27.26    -21.75     24.00
   34.8351     25.53     27.24    -23.21     24.00
   34.8453     25.93     27.21    -22.78     24.00
   34.8554     26.05     27.18    -22.63     24.00
   34.8656     25.82     27.15    -22.83     24.00
   34.8758     26.44     27.13    -22.19     24.00
   34.8859     25.71     27.10    -22.89     24.00
   34.8961     26.01     27.07    -22.56     24.00
   34.9063     26.26     27.04    -22.28     24.00
   34.9164     26.18     27.02    -22.34     24.00
   34.9266     26.03     26.99    -22.46     24.00
   34.9367     25.55     26.97    -22.92     24.00
   34.9469     25.93     26.94    -22.51     24.00
   34.9571     25.41     26.91    -23.00     24.00
   34.9672     26.01     26.89    -22.38     24.00
   34.9774     25.93     26.86    -22.43     24.00
   34.9876     25.85     26.84    -22.49     24.00
   34.9977     25.99     26.81    -22.32     24.00
   35.0079     26.06     26.79    -22.23     24.00
   35.0181     25.99     26.76    -22.27     24.00
   35.0282     25.37     26.74    -22.87     24.00
   35.0384     25.05     26.71    -23.16     24.00
   35.0486     26.15     26.69    -22.04     24.00
   35.0587     25.39     26.66    -22.77     24.00
   35.0689     26.22     26.64    -21.92     24.00
   35.0791     25.97     26.62    -22.15     24.00
   35.0892     25.99     26.59    -22.10     24.00
   35.0994     25.60     26.57    -22.47     24.00
   35.1095     25.91     26.54    -22.13     24.00
   35.1197     25.16     26.52    -22.86     24.00
   35.1299     25.42     26.50    -22.58     24.00
   35.1400     25.73     26.48    -22.25     24.00
   35.1502     25.69     26.45    -22.26     24.00
   35.1604     25.80     26.43    -22.13     24.00
   35.1705     25.24     26.41    -22.67     24.00
   35.1807     25.30     26.39    -22.59     24.00
   35.1909     26.21     26.37    -21.66     24.00
   35.2010     25.47     26.34    -22.37     24.00
   35.2112     25.69     26.32    -22.13     24.00
   35.2214     25.58     26.30    -22.22     24.00
   35.2315     25.73     26.28    -22.05     24.00
   35.2417     25.79     26.26    -21.97     24.00
   35.2518     24.77     26.24    -22.97     24.00
   35.2620     26.12     26.22    -21.60     24.00
   35.2722     25.65     26.20    -22.05     24.00
   35.2823     25.85     26.18    -21.83     24.00
   35.2925     25.54     26.16    -22.12     24.00
   35.3027     24.57     26.14    -23.07     24.00
   35.3128     25.11     26.12    -22.51     24.00
   35.3230     25.30     26.10    -22.30     24.00
   35.3332     25.08     26.08    -22.50     24.00
   35.3433     25.87     26.06    -21.69     24.00
   35.3535     25.45     26.04    -22.09     24.00
   35.3637     25.09     26.03    -22.44     24.00
   35.3738     25.15     26.01    -22.36     24.00
   35.3840     25.46     25.99    -22.03     24.00
   35.3942     25.73     25.97    -21.74     24.00
   35.4043     25.62     25.95    -21.83     24.00
   35.4145     24.93     25.94    -22.51     24.00
   35.4246     26.07     25.92    -21.35     24.00
   35.4348     25.28     25.90    -22.12     24.00
   35.4450     24.65     25.88    -22.73     24.00
   35.4551     25.90     25.87    -21.47     24.00
   35.4653     25.61     25.85    -21.74     24.00
   35.4755     25.16     25.83    -22.17     24.00
   35.4856     25.75     25.82    -21.57     24.00
   35.4958     25.12     25.80    -22.18     24.00
   35.5060     25.57     25.79    -21.72     24.00
   35.5161     25.01     25.77    -22.26     24.00
   35.5263     25.39     25.75    -21.86     24.00
   35.5365     25.16     25.74    -22.08     24.00
   35.5466     25.31     25.72    -21.91     24.00
   35.5568     25.00     25.71    -22.21     24.00
   35.5669     24.96     25.69    -22.23     24.00
   35.5771     25.40     25.68    -21.78     24.00
   35.5873     24.87     25.66    -22.29     24.00
   35.5974     25.37     25.65    -21.78     24.00
   35.6076     25.19     25.64    -21.95     24.00
   35.6178     24.97     25.62    -22.15     24.00
   35.6279     25.15     25.61    -21.96     24.00
   35.6381     25.03     25.59    -22.06     24.00
   35.6483     24.86     25.58    -22.22     24.00
   35.6584     24.99     25.57    -22.08     24.00
   35.6686     24.65     25.55    -22.40     24.00
   35.6788     25.15     25.54    -21.89     24.00
   35.6889     25.46     25.53    -21.57     24.00
   35.6991     24.89     25.52    -22.13     24.00
   35.7093     25.45     25.50    -21.55     24.00
   35.7194     24.51     25.49    -22.48     24.00
   35.7296     24.75     25.48    -22.23     24.00
   35.7397     25.01     25.47    -21.96     24.00
   35.7499     26.24     25.45    -20.71     24.00
   35.7601     24.79     25.44    -22.15     24.00
   35.7702     25.17     25.43    -21.76     24.00
   35.7804     25.43     25.42    -21.49     24.00
   35.7906     25.07     25.41    -21.84     24.00
   35.8007     24.96     25.40    -21.94     24.00
   35.8109     25.39     25.38    -21.49     24.00
   35.8211     24.66     25.37    -22.21     24.00
   35.8312     24.87     25.36    -21.99     24.00
   35.8414     24.63     25.35    -22.22     24.00
   35.8516     25.15     25.34    -21.69     24.00
   35.8617     25.27     25.33    -21.56     24.00
   35.8719     25.41     25.32    -21.41     24.00
   35.8820     24.04     25.31    -22.77     24.00
   35.8922     25.21     25.30    -21.59     24.00
   35.9024     25.05     25.29    -21.74     24.00
   35.9125     24.73     25.28    -22.05     24.00
   35.9227     25.22     25.27    -21.55     24.00
   35.9329     24.81     25.26    -21.95     24.00
   35.9430     24.79     25.25    -21.96     24.00
   35.9532     24.72     25.24    -22.02     24.00
   35.9634     24.34     25.23    -22.39     24.00
   35.9735     24.87     25.22    -21.85     24.00
   35.9837     25.12     25.22    -21.60     24.00
   35.9939     25.39     25.21    -21.32     24.00
