 => TITLE: 
 => Data file name: C:\Users\stefano\Nextcloud2\uni\master-thesis\XRD\data\G311\G311--5-40-0.01-1000ms.xy
 => Instrm        :    1
 => Lambda(1&2)   :   1.54060  1.54060
 => Numb.of.points:      2951
 => Numb.of.peaks :         8
    2Theta     Yobs     Ycalc  Yobs-Ycal    Backg    Bragg     Posr  Intensity   FWHM    Eta
    6.0086     23.18     24.58    -20.53     24.00   18.5483      1.38      94.12  0.8605 -0.0114
    6.0187     24.13     24.59    -19.59     24.00   20.1507      1.38      74.01  1.9576 -0.0114
    6.0289     23.91     24.59    -19.81     24.00   22.3554      1.38      72.75  1.2613 -0.0114
    6.0391     22.40     24.59    -21.32     24.00   28.3096      1.38      35.98  1.6113 -0.0114
    6.0492     23.65     24.60    -20.08     24.00   29.9342      1.38      28.39  2.3431 -0.0114
    6.0594     23.55     24.60    -20.18     24.00   33.0409      1.38      18.89  2.3431 -0.0114
    6.0696     24.14     24.61    -19.60     24.00   17.5000      1.38      70.20  2.3431 -0.0114
    6.0797     23.90     24.61    -19.84     24.00   19.7698      1.38     823.84 10.4513 -0.0114
    6.0899     23.93     24.62    -19.82     24.00
    6.1001     23.45     24.62    -20.30     24.00
    6.1102     23.66     24.63    -20.10     24.00
    6.1204     23.63     24.63    -20.13     24.00
    6.1306     22.86     24.64    -20.91     24.00
    6.1407     23.19     24.64    -20.58     24.00
    6.1509     23.66     24.64    -20.11     24.00
    6.1611     22.79     24.65    -20.99     24.00
    6.1712     23.52     24.65    -20.26     24.00
    6.1814     22.89     24.66    -20.90     24.00
    6.1915     22.82     24.66    -20.97     24.00
    6.2017     23.18     24.67    -20.62     24.00
    6.2119     23.37     24.67    -20.43     24.00
    6.2220     22.98     24.68    -20.83     24.00
    6.2322     23.34     24.68    -20.47     24.00
    6.2424     22.60     24.69    -21.22     24.00
    6.2525     23.48     24.69    -20.34     24.00
    6.2627     23.17     24.70    -20.66     24.00
    6.2729     22.91     24.70    -20.92     24.00
    6.2830     23.47     24.71    -20.37     24.00
    6.2932     23.16     24.71    -20.68     24.00
    6.3034     22.99     24.72    -20.86     24.00
    6.3135     22.64     24.72    -21.21     24.00
    6.3237     22.76     24.73    -21.10     24.00
    6.3338     23.60     24.73    -20.26     24.00
    6.3440     23.68     24.74    -20.19     24.00
    6.3542     23.46     24.74    -20.41     24.00
    6.3643     23.51     24.75    -20.37     24.00
    6.3745     23.44     24.75    -20.44     24.00
    6.3847     23.07     24.76    -20.82     24.00
    6.3948     21.90     24.77    -22.00     24.00
    6.4050     23.75     24.77    -20.15     24.00
    6.4152     22.99     24.78    -20.92     24.00
    6.4253     23.11     24.78    -20.80     24.00
    6.4355     23.10     24.79    -20.82     24.00
    6.4457     22.71     24.79    -21.21     24.00
    6.4558     21.96     24.80    -21.97     24.00
    6.4660     23.02     24.80    -20.91     24.00
    6.4762     22.91     24.81    -21.03     24.00
    6.4863     22.85     24.82    -21.10     24.00
    6.4965     23.51     24.82    -20.44     24.00
    6.5066     22.33     24.83    -21.63     24.00
    6.5168     22.80     24.83    -21.16     24.00
    6.5270     23.49     24.84    -20.48     24.00
    6.5371     23.25     24.84    -20.72     24.00
    6.5473     23.01     24.85    -20.97     24.00
    6.5575     22.77     24.86    -21.22     24.00
    6.5676     23.21     24.86    -20.78     24.00
    6.5778     23.14     24.87    -20.86     24.00
    6.5880     23.27     24.88    -20.74     24.00
    6.5981     23.45     24.88    -20.56     24.00
    6.6083     23.24     24.89    -20.78     24.00
    6.6185     22.61     24.89    -21.41     24.00
    6.6286     22.59     24.90    -21.44     24.00
    6.6388     23.27     24.91    -20.77     24.00
    6.6489     23.49     24.91    -20.55     24.00
    6.6591     22.15     24.92    -21.90     24.00
    6.6693     22.82     24.93    -21.24     24.00
    6.6794     22.98     24.93    -21.08     24.00
    6.6896     23.16     24.94    -20.91     24.00
    6.6998     23.42     24.94    -20.65     24.00
    6.7099     23.56     24.95    -20.52     24.00
    6.7201     23.34     24.96    -20.75     24.00
    6.7303     23.41     24.96    -20.68     24.00
    6.7404     23.99     24.97    -20.11     24.00
    6.7506     23.49     24.98    -20.62     24.00
    6.7608     22.96     24.98    -21.15     24.00
    6.7709     23.54     24.99    -20.58     24.00
    6.7811     23.64     25.00    -20.49     24.00
    6.7913     23.78     25.00    -20.35     24.00
    6.8014     23.24     25.01    -20.90     24.00
    6.8116     23.94     25.02    -20.21     24.00
    6.8217     23.58     25.03    -20.58     24.00
    6.8319     23.24     25.03    -20.92     24.00
    6.8421     23.89     25.04    -20.28     24.00
    6.8522     23.48     25.05    -20.70     24.00
    6.8624     23.32     25.05    -20.86     24.00
    6.8726     23.09     25.06    -21.10     24.00
    6.8827     23.68     25.07    -20.52     24.00
    6.8929     22.52     25.08    -21.69     24.00
    6.9031     23.31     25.08    -20.90     24.00
    6.9132     23.98     25.09    -20.24     24.00
    6.9234     23.76     25.10    -20.47     24.00
    6.9336     23.12     25.11    -21.12     24.00
    6.9437     23.73     25.11    -20.51     24.00
    6.9539     23.96     25.12    -20.29     24.00
    6.9640     23.18     25.13    -21.08     24.00
    6.9742     23.48     25.14    -20.79     24.00
    6.9844     23.58     25.14    -20.69     24.00
    6.9945     23.30     25.15    -20.98     24.00
    7.0047     23.45     25.16    -20.84     24.00
    7.0149     24.01     25.17    -20.29     24.00
    7.0250     23.73     25.17    -20.57     24.00
    7.0352     23.55     25.18    -20.76     24.00
    7.0454     23.49     25.19    -20.83     24.00
    7.0555     23.71     25.20    -20.62     24.00
    7.0657     24.01     25.21    -20.33     24.00
    7.0759     23.91     25.21    -20.43     24.00
    7.0860     23.13     25.22    -21.22     24.00
    7.0962     24.09     25.23    -20.27     24.00
    7.1064     24.22     25.24    -20.15     24.00
    7.1165     22.99     25.25    -21.39     24.00
    7.1267     23.65     25.26    -20.74     24.00
    7.1368     24.29     25.26    -20.10     24.00
    7.1470     23.58     25.27    -20.82     24.00
    7.1572     23.16     25.28    -21.25     24.00
    7.1673     24.00     25.29    -20.42     24.00
    7.1775     23.99     25.30    -20.44     24.00
    7.1877     24.13     25.31    -20.31     24.00
    7.1978     24.12     25.31    -20.32     24.00
    7.2080     23.49     25.32    -20.96     24.00
    7.2182     24.49     25.33    -19.97     24.00
    7.2283     24.13     25.34    -20.34     24.00
    7.2385     24.64     25.35    -19.84     24.00
    7.2487     24.27     25.36    -20.22     24.00
    7.2588     24.09     25.37    -20.41     24.00
    7.2690     23.40     25.38    -21.11     24.00
    7.2791     24.35     25.39    -20.17     24.00
    7.2893     23.68     25.40    -20.85     24.00
    7.2995     23.46     25.40    -21.07     24.00
    7.3096     25.50     25.41    -19.04     24.00
    7.3198     24.24     25.42    -20.31     24.00
    7.3300     24.07     25.43    -20.49     24.00
    7.3401     24.30     25.44    -20.27     24.00
    7.3503     24.85     25.45    -19.73     24.00
    7.3605     24.44     25.46    -20.15     24.00
    7.3706     23.99     25.47    -20.61     24.00
    7.3808     23.57     25.48    -21.04     24.00
    7.3910     23.37     25.49    -21.25     24.00
    7.4011     24.43     25.50    -20.20     24.00
    7.4113     24.46     25.51    -20.18     24.00
    7.4215     24.26     25.52    -20.39     24.00
    7.4316     25.22     25.53    -19.44     24.00
    7.4418     23.76     25.54    -20.91     24.00
    7.4519     23.95     25.55    -20.73     24.00
    7.4621     24.31     25.56    -20.38     24.00
    7.4723     24.48     25.57    -20.22     24.00
    7.4824     23.62     25.58    -21.09     24.00
    7.4926     23.85     25.59    -20.87     24.00
    7.5028     25.01     25.60    -19.72     24.00
    7.5129     24.40     25.61    -20.34     24.00
    7.5231     25.06     25.62    -19.69     24.00
    7.5333     24.84     25.63    -19.92     24.00
    7.5434     25.43     25.64    -19.34     24.00
    7.5536     25.54     25.65    -19.24     24.00
    7.5638     24.43     25.66    -20.36     24.00
    7.5739     24.89     25.67    -19.91     24.00
    7.5841     24.49     25.68    -20.32     24.00
    7.5942     25.36     25.69    -19.46     24.00
    7.6044     25.01     25.70    -19.82     24.00
    7.6146     25.46     25.72    -19.39     24.00
    7.6247     24.99     25.73    -19.87     24.00
    7.6349     24.45     25.74    -20.42     24.00
    7.6451     24.41     25.75    -20.47     24.00
    7.6552     25.22     25.76    -19.67     24.00
    7.6654     24.40     25.77    -20.50     24.00
    7.6756     24.81     25.78    -20.10     24.00
    7.6857     24.86     25.79    -20.06     24.00
    7.6959     24.35     25.80    -20.58     24.00
    7.7061     24.51     25.82    -20.44     24.00
    7.7162     24.73     25.83    -20.23     24.00
    7.7264     25.05     25.84    -19.92     24.00
    7.7365     25.35     25.85    -19.63     24.00
    7.7467     24.99     25.86    -20.00     24.00
    7.7569     24.59     25.87    -20.41     24.00
    7.7670     24.60     25.89    -20.42     24.00
    7.7772     24.93     25.90    -20.10     24.00
    7.7874     25.22     25.91    -19.82     24.00
    7.7975     24.68     25.92    -20.37     24.00
    7.8077     25.49     25.93    -19.57     24.00
    7.8179     25.37     25.95    -19.71     24.00
    7.8280     24.99     25.96    -20.10     24.00
    7.8382     25.72     25.97    -19.38     24.00
    7.8484     24.91     25.98    -20.20     24.00
    7.8585     25.03     26.00    -20.10     24.00
    7.8687     25.91     26.01    -19.23     24.00
    7.8789     24.64     26.02    -20.51     24.00
    7.8890     25.66     26.03    -19.50     24.00
    7.8992     25.60     26.05    -19.58     24.00
    7.9093     25.67     26.06    -19.52     24.00
    7.9195     25.34     26.07    -19.86     24.00
    7.9297     26.20     26.08    -19.01     24.00
    7.9398     24.93     26.10    -20.30     24.00
    7.9500     26.45     26.11    -18.79     24.00
    7.9602     25.79     26.12    -19.46     24.00
    7.9703     25.52     26.14    -19.75     24.00
    7.9805     25.37     26.15    -19.91     24.00
    7.9907     26.27     26.16    -19.02     24.00
    8.0008     25.78     26.18    -19.53     24.00
    8.0110     25.68     26.19    -19.64     24.00
    8.0212     26.69     26.20    -18.64     24.00
    8.0313     25.65     26.22    -19.70     24.00
    8.0415     25.59     26.23    -19.77     24.00
    8.0516     25.67     26.24    -19.70     24.00
    8.0618     26.09     26.26    -19.30     24.00
    8.0720     26.02     26.27    -19.38     24.00
    8.0821     25.51     26.28    -19.90     24.00
    8.0923     25.49     26.30    -19.94     24.00
    8.1025     25.51     26.31    -19.93     24.00
    8.1126     26.29     26.33    -19.17     24.00
    8.1228     25.99     26.34    -19.48     24.00
    8.1330     25.68     26.36    -19.81     24.00
    8.1431     26.21     26.37    -19.29     24.00
    8.1533     25.90     26.38    -19.61     24.00
    8.1635     25.84     26.40    -19.69     24.00
    8.1736     26.96     26.41    -18.58     24.00
    8.1838     25.25     26.43    -20.31     24.00
    8.1940     26.02     26.44    -19.55     24.00
    8.2041     25.90     26.46    -19.69     24.00
    8.2143     26.74     26.47    -18.86     24.00
    8.2244     26.51     26.49    -19.11     24.00
    8.2346     26.80     26.50    -18.83     24.00
    8.2448     26.71     26.52    -18.94     24.00
    8.2549     26.29     26.53    -19.37     24.00
    8.2651     27.02     26.55    -18.66     24.00
    8.2753     26.34     26.56    -19.35     24.00
    8.2854     26.23     26.58    -19.48     24.00
    8.2956     26.91     26.59    -18.81     24.00
    8.3058     26.26     26.61    -19.48     24.00
    8.3159     26.34     26.62    -19.41     24.00
    8.3261     27.73     26.64    -18.04     24.00
    8.3363     27.16     26.66    -18.63     24.00
    8.3464     26.76     26.67    -19.04     24.00
    8.3566     26.87     26.69    -18.95     24.00
    8.3667     26.77     26.70    -19.06     24.00
    8.3769     26.29     26.72    -19.56     24.00
    8.3871     26.48     26.74    -19.39     24.00
    8.3972     26.73     26.75    -19.15     24.00
    8.4074     27.12     26.77    -18.78     24.00
    8.4176     27.52     26.79    -18.40     24.00
    8.4277     26.94     26.80    -18.99     24.00
    8.4379     27.27     26.82    -18.68     24.00
    8.4481     27.27     26.84    -18.70     24.00
    8.4582     27.23     26.85    -18.75     24.00
    8.4684     27.41     26.87    -18.59     24.00
    8.4786     27.27     26.89    -18.75     24.00
    8.4887     26.27     26.90    -19.76     24.00
    8.4989     26.95     26.92    -19.10     24.00
    8.5091     26.72     26.94    -19.35     24.00
    8.5192     26.78     26.95    -19.30     24.00
    8.5294     27.52     26.97    -18.58     24.00
    8.5395     27.05     26.99    -19.07     24.00
    8.5497     27.54     27.01    -18.60     24.00
    8.5599     27.46     27.02    -18.69     24.00
    8.5700     27.01     27.04    -19.16     24.00
    8.5802     27.19     27.06    -19.00     24.00
    8.5904     27.29     27.08    -18.92     24.00
    8.6005     28.48     27.10    -17.75     24.00
    8.6107     27.56     27.11    -18.68     24.00
    8.6209     27.77     27.13    -18.49     24.00
    8.6310     27.84     27.15    -18.44     24.00
    8.6412     27.16     27.17    -19.14     24.00
    8.6514     27.45     27.19    -18.87     24.00
    8.6615     28.44     27.21    -17.90     24.00
    8.6717     27.61     27.22    -18.74     24.00
    8.6818     27.15     27.24    -19.22     24.00
    8.6920     27.63     27.26    -18.76     24.00
    8.7022     27.43     27.28    -18.98     24.00
    8.7123     27.36     27.30    -19.07     24.00
    8.7225     27.88     27.32    -18.57     24.00
    8.7327     27.68     27.34    -18.79     24.00
    8.7428     26.88     27.36    -19.61     24.00
    8.7530     27.97     27.38    -18.54     24.00
    8.7632     28.06     27.40    -18.47     24.00
    8.7733     27.71     27.41    -18.83     24.00
    8.7835     27.94     27.43    -18.62     24.00
    8.7937     28.27     27.45    -18.31     24.00
    8.8038     28.44     27.47    -18.16     24.00
    8.8140     28.32     27.49    -18.30     24.00
    8.8242     28.32     27.51    -18.32     24.00
    8.8343     28.15     27.53    -18.51     24.00
    8.8445     28.48     27.55    -18.20     24.00
    8.8546     27.70     27.57    -19.00     24.00
    8.8648     28.01     27.59    -18.71     24.00
    8.8750     28.18     27.61    -18.56     24.00
    8.8851     27.87     27.64    -18.90     24.00
    8.8953     28.05     27.66    -18.74     24.00
    8.9055     27.59     27.68    -19.22     24.00
    8.9156     27.41     27.70    -19.42     24.00
    8.9258     28.57     27.72    -18.28     24.00
    8.9360     27.83     27.74    -19.04     24.00
    8.9461     27.35     27.76    -19.54     24.00
    8.9563     28.66     27.78    -18.25     24.00
    8.9665     28.74     27.80    -18.19     24.00
    8.9766     27.64     27.82    -19.31     24.00
    8.9868     28.55     27.85    -18.43     24.00
    8.9969     28.88     27.87    -18.12     24.00
    9.0071     28.09     27.89    -18.93     24.00
    9.0173     27.88     27.91    -19.16     24.00
    9.0274     28.45     27.93    -18.61     24.00
    9.0376     29.10     27.95    -17.98     24.00
    9.0478     28.93     27.98    -18.18     24.00
    9.0579     28.02     28.00    -19.11     24.00
    9.0681     28.98     28.02    -18.17     24.00
    9.0783     29.07     28.04    -18.10     24.00
    9.0884     28.55     28.07    -18.65     24.00
    9.0986     28.31     28.09    -18.91     24.00
    9.1088     29.34     28.11    -17.90     24.00
    9.1189     29.21     28.13    -18.05     24.00
    9.1291     28.52     28.16    -18.77     24.00
    9.1393     28.50     28.18    -18.81     24.00
    9.1494     29.23     28.20    -18.10     24.00
    9.1596     28.99     28.23    -18.37     24.00
    9.1697     29.20     28.25    -18.18     24.00
    9.1799     29.16     28.27    -18.24     24.00
    9.1901     28.88     28.30    -18.55     24.00
    9.2002     29.58     28.32    -17.87     24.00
    9.2104     29.33     28.34    -18.14     24.00
    9.2206     29.01     28.37    -18.49     24.00
    9.2307     29.05     28.39    -18.47     24.00
    9.2409     29.83     28.42    -17.72     24.00
    9.2511     29.32     28.44    -18.25     24.00
    9.2612     29.53     28.47    -18.07     24.00
    9.2714     29.91     28.49    -17.71     24.00
    9.2816     29.29     28.51    -18.35     24.00
    9.2917     29.83     28.54    -17.84     24.00
    9.3019     30.13     28.56    -17.56     24.00
    9.3120     29.43     28.59    -18.29     24.00
    9.3222     29.62     28.61    -18.12     24.00
    9.3324     30.05     28.64    -17.72     24.00
    9.3425     30.16     28.66    -17.63     24.00
    9.3527     30.01     28.69    -17.81     24.00
    9.3629     30.07     28.71    -17.77     24.00
    9.3730     29.93     28.74    -17.94     24.00
    9.3832     29.75     28.77    -18.15     24.00
    9.3934     30.20     28.79    -17.72     24.00
    9.4035     30.43     28.82    -17.52     24.00
    9.4137     29.61     28.84    -18.36     24.00
    9.4239     30.41     28.87    -17.59     24.00
    9.4340     30.18     28.90    -17.85     24.00
    9.4442     29.45     28.92    -18.60     24.00
    9.4544     30.49     28.95    -17.59     24.00
    9.4645     30.13     28.97    -17.97     24.00
    9.4747     30.24     29.00    -17.89     24.00
    9.4848     30.29     29.03    -17.87     24.00
    9.4950     29.84     29.06    -18.35     24.00
    9.5052     30.23     29.08    -17.98     24.00
    9.5153     30.40     29.11    -17.84     24.00
    9.5255     29.79     29.14    -18.48     24.00
    9.5357     29.84     29.16    -18.45     24.00
    9.5458     30.92     29.19    -17.40     24.00
    9.5560     29.39     29.22    -18.96     24.00
    9.5662     30.03     29.25    -18.35     24.00
    9.5763     30.18     29.27    -18.22     24.00
    9.5865     29.72     29.30    -18.71     24.00
    9.5967     30.15     29.33    -18.31     24.00
    9.6068     30.40     29.36    -18.09     24.00
    9.6170     30.15     29.39    -18.37     24.00
    9.6271     30.41     29.42    -18.14     24.00
    9.6373     30.59     29.44    -17.98     24.00
    9.6475     30.28     29.47    -18.32     24.00
    9.6576     29.77     29.50    -18.86     24.00
    9.6678     30.21     29.53    -18.45     24.00
    9.6780     29.68     29.56    -19.01     24.00
    9.6881     31.04     29.59    -17.68     24.00
    9.6983     30.18     29.62    -18.57     24.00
    9.7085     30.01     29.65    -18.77     24.00
    9.7186     31.18     29.68    -17.63     24.00
    9.7288     30.34     29.71    -18.50     24.00
    9.7390     30.60     29.74    -18.27     24.00
    9.7491     31.05     29.77    -17.85     24.00
    9.7593     30.62     29.80    -18.31     24.00
    9.7694     31.15     29.83    -17.81     24.00
    9.7796     30.35     29.86    -18.64     24.00
    9.7898     29.71     29.89    -19.31     24.00
    9.7999     31.13     29.92    -17.92     24.00
    9.8101     31.25     29.95    -17.83     24.00
    9.8203     30.22     29.98    -18.89     24.00
    9.8304     30.72     30.01    -18.42     24.00
    9.8406     31.00     30.04    -18.17     24.00
    9.8508     31.60     30.07    -17.60     24.00
    9.8609     30.77     30.10    -18.46     24.00
    9.8711     31.81     30.14    -17.46     24.00
    9.8813     30.20     30.17    -19.10     24.00
    9.8914     31.12     30.20    -18.21     24.00
    9.9016     30.50     30.23    -18.86     24.00
    9.9118     31.77     30.26    -17.62     24.00
    9.9219     31.30     30.29    -18.12     24.00
    9.9321     31.41     30.33    -18.05     24.00
    9.9422     31.85     30.36    -17.64     24.00
    9.9524     31.32     30.39    -18.20     24.00
    9.9626     30.77     30.42    -18.78     24.00
    9.9727     31.80     30.46    -17.79     24.00
    9.9829     31.60     30.49    -18.02     24.00
    9.9931     32.86     30.52    -16.79     24.00
   10.0032     31.57     30.56    -18.12     24.00
   10.0134     32.28     30.59    -17.44     24.00
   10.0236     31.33     30.62    -18.42     24.00
   10.0337     31.51     30.66    -18.28     24.00
   10.0439     30.95     30.69    -18.87     24.00
   10.0541     31.79     30.72    -18.06     24.00
   10.0642     32.43     30.76    -17.46     24.00
   10.0744     31.79     30.79    -18.13     24.00
   10.0845     31.48     30.83    -18.48     24.00
   10.0947     32.73     30.86    -17.26     24.00
   10.1049     31.63     30.89    -18.39     24.00
   10.1150     32.20     30.93    -17.86     24.00
   10.1252     31.86     30.96    -18.23     24.00
   10.1354     32.76     31.00    -17.37     24.00
   10.1455     31.68     31.03    -18.48     24.00
   10.1557     31.24     31.07    -18.96     24.00
   10.1659     32.55     31.10    -17.68     24.00
   10.1760     31.93     31.14    -18.34     24.00
   10.1862     32.30     31.18    -18.01     24.00
   10.1964     31.62     31.21    -18.72     24.00
   10.2065     31.18     31.25    -19.20     24.00
   10.2167     32.05     31.28    -18.36     24.00
   10.2269     32.01     31.32    -18.44     24.00
   10.2370     32.12     31.35    -18.36     24.00
   10.2472     31.62     31.39    -18.90     24.00
   10.2573     31.48     31.43    -19.08     24.00
   10.2675     32.63     31.46    -17.96     24.00
   10.2777     32.47     31.50    -18.16     24.00
   10.2878     32.43     31.54    -18.24     24.00
   10.2980     32.63     31.58    -18.08     24.00
   10.3082     32.71     31.61    -18.03     24.00
   10.3183     31.98     31.65    -18.80     24.00
   10.3285     31.91     31.69    -18.91     24.00
   10.3387     32.61     31.73    -18.25     24.00
   10.3488     31.83     31.76    -19.06     24.00
   10.3590     33.08     31.80    -17.85     24.00
   10.3692     32.24     31.84    -18.73     24.00
   10.3793     32.90     31.88    -18.11     24.00
   10.3895     33.84     31.92    -17.21     24.00
   10.3996     32.37     31.95    -18.71     24.00
   10.4098     32.76     31.99    -18.36     24.00
   10.4200     32.60     32.03    -18.56     24.00
   10.4301     33.22     32.07    -17.98     24.00
   10.4403     32.91     32.11    -18.33     24.00
   10.4505     32.70     32.15    -18.58     24.00
   10.4606     33.71     32.19    -17.61     24.00
   10.4708     32.88     32.23    -18.48     24.00
   10.4810     33.74     32.27    -17.66     24.00
   10.4911     33.17     32.31    -18.27     24.00
   10.5013     32.91     32.35    -18.57     24.00
   10.5115     33.63     32.39    -17.89     24.00
   10.5216     33.33     32.43    -18.23     24.00
   10.5318     33.12     32.47    -18.48     24.00
   10.5420     33.33     32.51    -18.31     24.00
   10.5521     32.80     32.55    -18.88     24.00
   10.5623     33.41     32.59    -18.31     24.00
   10.5724     33.12     32.63    -18.64     24.00
   10.5826     33.48     32.67    -18.32     24.00
   10.5928     33.02     32.71    -18.82     24.00
   10.6029     33.15     32.76    -18.74     24.00
   10.6131     32.40     32.80    -19.53     24.00
   10.6233     32.98     32.84    -18.99     24.00
   10.6334     32.82     32.88    -19.19     24.00
   10.6436     34.40     32.92    -17.65     24.00
   10.6538     33.14     32.97    -18.96     24.00
   10.6639     33.71     33.01    -18.43     24.00
   10.6741     33.27     33.05    -18.91     24.00
   10.6843     33.38     33.09    -18.84     24.00
   10.6944     33.43     33.14    -18.84     24.00
   10.7046     33.98     33.18    -18.33     24.00
   10.7147     35.42     33.22    -16.93     24.00
   10.7249     33.98     33.27    -18.42     24.00
   10.7351     33.95     33.31    -18.49     24.00
   10.7452     33.53     33.35    -18.95     24.00
   10.7554     34.29     33.40    -18.24     24.00
   10.7656     33.32     33.44    -19.25     24.00
   10.7757     33.70     33.48    -18.91     24.00
   10.7859     34.37     33.53    -18.29     24.00
   10.7961     34.39     33.57    -18.31     24.00
   10.8062     33.92     33.62    -18.83     24.00
   10.8164     33.61     33.66    -19.18     24.00
   10.8266     34.06     33.71    -18.78     24.00
   10.8367     33.93     33.75    -18.95     24.00
   10.8469     34.21     33.80    -18.72     24.00
   10.8571     34.43     33.84    -18.54     24.00
   10.8672     33.91     33.89    -19.11     24.00
   10.8774     33.63     33.93    -19.43     24.00
   10.8875     33.86     33.98    -19.25     24.00
   10.8977     34.20     34.03    -18.96     24.00
   10.9079     34.62     34.07    -18.58     24.00
   10.9180     33.45     34.12    -19.80     24.00
   10.9282     34.96     34.17    -18.34     24.00
   10.9384     34.74     34.21    -18.60     24.00
   10.9485     34.33     34.26    -19.06     24.00
   10.9587     35.05     34.31    -18.39     24.00
   10.9689     34.52     34.35    -18.96     24.00
   10.9790     34.60     34.40    -18.93     24.00
   10.9892     35.07     34.45    -18.51     24.00
   10.9994     35.05     34.49    -18.57     24.00
   11.0095     34.76     34.54    -18.91     24.00
   11.0197     35.09     34.59    -18.63     24.00
   11.0298     34.84     34.64    -18.93     24.00
   11.0400     35.34     34.69    -18.48     24.00
   11.0502     35.27     34.73    -18.59     24.00
   11.0603     34.95     34.78    -18.96     24.00
   11.0705     34.10     34.83    -19.86     24.00
   11.0807     35.19     34.88    -18.82     24.00
   11.0908     34.90     34.93    -19.16     24.00
   11.1010     35.24     34.98    -18.87     24.00
   11.1112     34.69     35.03    -19.47     24.00
   11.1213     34.88     35.08    -19.33     24.00
   11.1315     34.43     35.13    -19.83     24.00
   11.1417     35.35     35.18    -18.96     24.00
   11.1518     35.93     35.23    -18.43     24.00
   11.1620     35.22     35.28    -19.19     24.00
   11.1722     35.55     35.33    -18.91     24.00
   11.1823     35.70     35.38    -18.81     24.00
   11.1925     34.81     35.43    -19.75     24.00
   11.2026     35.16     35.48    -19.45     24.00
   11.2128     36.08     35.53    -18.58     24.00
   11.2230     35.30     35.58    -19.41     24.00
   11.2331     34.96     35.63    -19.80     24.00
   11.2433     35.41     35.68    -19.40     24.00
   11.2535     35.89     35.74    -18.98     24.00
   11.2636     36.16     35.79    -18.76     24.00
   11.2738     36.05     35.84    -18.92     24.00
   11.2840     36.34     35.89    -18.68     24.00
   11.2941     36.60     35.94    -18.47     24.00
   11.3043     36.41     36.00    -18.72     24.00
   11.3145     36.26     36.05    -18.92     24.00
   11.3246     35.77     36.10    -19.46     24.00
   11.3348     36.70     36.16    -18.59     24.00
   11.3449     35.15     36.21    -20.19     24.00
   11.3551     37.15     36.26    -18.24     24.00
   11.3653     36.20     36.32    -19.25     24.00
   11.3754     36.76     36.37    -18.74     24.00
   11.3856     36.66     36.42    -18.89     24.00
   11.3958     36.49     36.48    -19.12     24.00
   11.4059     36.69     36.53    -18.97     24.00
   11.4161     35.93     36.59    -19.79     24.00
   11.4263     35.98     36.64    -19.79     24.00
   11.4364     36.54     36.69    -19.28     24.00
   11.4466     36.63     36.75    -19.25     24.00
   11.4568     37.46     36.80    -18.47     24.00
   11.4669     36.34     36.86    -19.65     24.00
   11.4771     36.59     36.91    -19.45     24.00
   11.4873     36.78     36.97    -19.32     24.00
   11.4974     36.35     37.03    -19.81     24.00
   11.5076     36.72     37.08    -19.49     24.00
   11.5177     35.79     37.14    -20.48     24.00
   11.5279     36.46     37.19    -19.86     24.00
   11.5381     36.71     37.25    -19.67     24.00
   11.5482     37.38     37.31    -19.06     24.00
   11.5584     37.05     37.36    -19.44     24.00
   11.5686     38.05     37.42    -18.50     24.00
   11.5787     37.59     37.48    -19.02     24.00
   11.5889     37.41     37.53    -19.25     24.00
   11.5991     37.60     37.59    -19.12     24.00
   11.6092     37.71     37.65    -19.07     24.00
   11.6194     37.79     37.71    -19.05     24.00
   11.6296     37.25     37.77    -19.65     24.00
   11.6397     37.48     37.82    -19.47     24.00
   11.6499     37.72     37.88    -19.29     24.00
   11.6600     37.37     37.94    -19.70     24.00
   11.6702     37.63     38.00    -19.50     24.00
   11.6804     37.40     38.06    -19.79     24.00
   11.6905     37.70     38.12    -19.55     24.00
   11.7007     37.45     38.17    -19.85     24.00
   11.7109     38.15     38.23    -19.21     24.00
   11.7210     37.46     38.29    -19.96     24.00
   11.7312     38.00     38.35    -19.48     24.00
   11.7414     38.79     38.41    -18.75     24.00
   11.7515     38.22     38.47    -19.38     24.00
   11.7617     39.04     38.53    -18.62     24.00
   11.7719     37.62     38.59    -20.10     24.00
   11.7820     38.74     38.65    -19.04     24.00
   11.7922     38.95     38.71    -18.89     24.00
   11.8023     37.95     38.77    -19.95     24.00
   11.8125     38.83     38.84    -19.14     24.00
   11.8227     37.78     38.90    -20.25     24.00
   11.8328     38.40     38.96    -19.69     24.00
   11.8430     37.70     39.02    -20.45     24.00
   11.8532     38.69     39.08    -19.52     24.00
   11.8633     38.91     39.14    -19.36     24.00
   11.8735     38.57     39.21    -19.77     24.00
   11.8837     38.36     39.27    -20.04     24.00
   11.8938     38.63     39.33    -19.83     24.00
   11.9040     37.95     39.39    -20.57     24.00
   11.9142     39.05     39.46    -19.54     24.00
   11.9243     39.09     39.52    -19.56     24.00
   11.9345     37.54     39.58    -21.17     24.00
   11.9447     38.80     39.64    -19.97     24.00
   11.9548     39.73     39.71    -19.11     24.00
   11.9650     39.22     39.77    -19.68     24.00
   11.9751     39.24     39.84    -19.73     24.00
   11.9853     38.24     39.90    -20.79     24.00
   11.9955     39.41     39.96    -19.68     24.00
   12.0056     39.37     40.03    -19.79     24.00
   12.0158     40.33     40.09    -18.89     24.00
   12.0260     38.71     40.16    -20.58     24.00
   12.0361     39.84     40.22    -19.51     24.00
   12.0463     40.22     40.29    -19.20     24.00
   12.0565     39.96     40.35    -19.52     24.00
   12.0666     39.39     40.42    -20.16     24.00
   12.0768     38.99     40.48    -20.62     24.00
   12.0870     39.87     40.55    -19.81     24.00
   12.0971     39.85     40.61    -19.89     24.00
   12.1073     38.68     40.68    -21.13     24.00
   12.1174     40.76     40.75    -19.12     24.00
   12.1276     40.18     40.81    -19.76     24.00
   12.1378     41.38     40.88    -18.63     24.00
   12.1479     39.60     40.95    -20.48     24.00
   12.1581     39.67     41.01    -20.47     24.00
   12.1683     40.40     41.08    -19.81     24.00
   12.1784     40.65     41.15    -19.63     24.00
   12.1886     40.27     41.21    -20.07     24.00
   12.1988     39.79     41.28    -20.62     24.00
   12.2089     41.02     41.35    -19.46     24.00
   12.2191     40.36     41.42    -20.19     24.00
   12.2293     40.76     41.49    -19.86     24.00
   12.2394     40.87     41.55    -19.81     24.00
   12.2496     40.75     41.62    -20.00     24.00
   12.2598     40.32     41.69    -20.50     24.00
   12.2699     41.63     41.76    -19.26     24.00
   12.2801     40.90     41.83    -20.06     24.00
   12.2902     40.74     41.90    -20.29     24.00
   12.3004     40.87     41.97    -20.23     24.00
   12.3106     40.12     42.04    -21.05     24.00
   12.3207     40.95     42.11    -20.29     24.00
   12.3309     41.23     42.18    -20.08     24.00
   12.3411     40.15     42.25    -21.23     24.00
   12.3512     41.41     42.32    -20.04     24.00
   12.3614     41.12     42.39    -20.40     24.00
   12.3716     41.42     42.46    -20.17     24.00
   12.3817     41.29     42.53    -20.37     24.00
   12.3919     42.00     42.60    -19.73     24.00
   12.4021     40.96     42.67    -20.84     24.00
   12.4122     41.68     42.74    -20.19     24.00
   12.4224     41.85     42.81    -20.09     24.00
   12.4325     41.64     42.88    -20.37     24.00
   12.4427     41.19     42.96    -20.90     24.00
   12.4529     42.23     43.03    -19.93     24.00
   12.4630     41.92     43.10    -20.31     24.00
   12.4732     41.74     43.17    -20.56     24.00
   12.4834     42.54     43.24    -19.83     24.00
   12.4935     42.05     43.32    -20.40     24.00
   12.5037     41.94     43.39    -20.58     24.00
   12.5139     41.73     43.46    -20.86     24.00
   12.5240     42.63     43.53    -20.03     24.00
   12.5342     42.69     43.61    -20.05     24.00
   12.5444     42.79     43.68    -20.02     24.00
   12.5545     42.51     43.76    -20.38     24.00
   12.5647     42.29     43.83    -20.67     24.00
   12.5749     43.30     43.90    -19.73     24.00
   12.5850     42.27     43.98    -20.84     24.00
   12.5952     42.67     44.05    -20.51     24.00
   12.6053     42.09     44.13    -21.17     24.00
   12.6155     42.49     44.20    -20.84     24.00
   12.6257     43.35     44.28    -20.06     24.00
   12.6358     42.61     44.35    -20.87     24.00
   12.6460     42.73     44.43    -20.83     24.00
   12.6562     42.07     44.50    -21.56     24.00
   12.6663     42.35     44.58    -21.36     24.00
   12.6765     43.36     44.65    -20.42     24.00
   12.6867     43.52     44.73    -20.34     24.00
   12.6968     43.91     44.80    -20.02     24.00
   12.7070     44.70     44.88    -19.31     24.00
   12.7172     44.13     44.96    -19.96     24.00
   12.7273     44.57     45.03    -19.59     24.00
   12.7375     44.41     45.11    -19.83     24.00
   12.7476     43.90     45.19    -20.42     24.00
   12.7578     45.51     45.26    -18.88     24.00
   12.7680     44.15     45.34    -20.32     24.00
   12.7781     43.91     45.42    -20.64     24.00
   12.7883     44.98     45.49    -19.64     24.00
   12.7985     43.65     45.57    -21.05     24.00
   12.8086     43.59     45.65    -21.19     24.00
   12.8188     45.16     45.73    -19.70     24.00
   12.8290     43.96     45.81    -20.98     24.00
   12.8391     44.88     45.88    -20.13     24.00
   12.8493     45.16     45.96    -19.93     24.00
   12.8595     44.93     46.04    -20.24     24.00
   12.8696     43.95     46.12    -21.30     24.00
   12.8798     44.95     46.20    -20.38     24.00
   12.8900     43.86     46.28    -21.55     24.00
   12.9001     45.72     46.36    -19.77     24.00
   12.9103     44.68     46.44    -20.89     24.00
   12.9204     44.93     46.52    -20.72     24.00
   12.9306     44.75     46.60    -20.98     24.00
   12.9408     44.83     46.68    -20.98     24.00
   12.9509     45.00     46.76    -20.89     24.00
   12.9611     45.40     46.84    -20.57     24.00
   12.9713     45.60     46.92    -20.45     24.00
   12.9814     46.28     47.00    -19.85     24.00
   12.9916     46.03     47.08    -20.18     24.00
   13.0018     45.73     47.16    -20.56     24.00
   13.0119     46.65     47.24    -19.72     24.00
   13.0221     46.02     47.32    -20.43     24.00
   13.0323     46.54     47.40    -19.99     24.00
   13.0424     46.28     47.49    -20.34     24.00
   13.0526     46.17     47.57    -20.53     24.00
   13.0627     46.23     47.65    -20.55     24.00
   13.0729     46.36     47.73    -20.50     24.00
   13.0831     46.44     47.81    -20.50     24.00
   13.0932     45.93     47.90    -21.10     24.00
   13.1034     46.12     47.98    -20.99     24.00
   13.1136     46.84     48.06    -20.35     24.00
   13.1237     47.52     48.14    -19.75     24.00
   13.1339     47.32     48.23    -20.04     24.00
   13.1441     47.56     48.31    -19.88     24.00
   13.1542     46.40     48.39    -21.12     24.00
   13.1644     46.85     48.48    -20.76     24.00
   13.1746     46.55     48.56    -21.14     24.00
   13.1847     46.70     48.65    -21.08     24.00
   13.1949     48.55     48.73    -19.31     24.00
   13.2051     46.99     48.81    -20.95     24.00
   13.2152     46.87     48.90    -21.16     24.00
   13.2254     47.73     48.98    -20.38     24.00
   13.2355     47.27     49.07    -20.93     24.00
   13.2457     47.63     49.15    -20.65     24.00
   13.2559     47.97     49.24    -20.40     24.00
   13.2660     48.29     49.32    -20.16     24.00
   13.2762     48.79     49.41    -19.75     24.00
   13.2864     48.53     49.49    -20.09     24.00
   13.2965     48.34     49.58    -20.37     24.00
   13.3067     47.90     49.66    -20.89     24.00
   13.3169     48.07     49.75    -20.81     24.00
   13.3270     48.02     49.84    -20.95     24.00
   13.3372     48.74     49.92    -20.31     24.00
   13.3474     49.53     50.01    -19.61     24.00
   13.3575     49.09     50.10    -20.14     24.00
   13.3677     49.82     50.18    -19.49     24.00
   13.3778     49.84     50.27    -19.56     24.00
   13.3880     49.32     50.36    -20.17     24.00
   13.3982     49.46     50.44    -20.11     24.00
   13.4083     48.98     50.53    -20.68     24.00
   13.4185     49.07     50.62    -20.68     24.00
   13.4287     48.59     50.71    -21.25     24.00
   13.4388     49.07     50.79    -20.85     24.00
   13.4490     49.01     50.88    -21.00     24.00
   13.4592     50.52     50.97    -19.58     24.00
   13.4693     49.11     51.06    -21.08     24.00
   13.4795     49.45     51.15    -20.83     24.00
   13.4897     49.71     51.24    -20.66     24.00
   13.4998     49.61     51.32    -20.84     24.00
   13.5100     49.70     51.41    -20.84     24.00
   13.5201     50.43     51.50    -20.20     24.00
   13.5303     49.88     51.59    -20.84     24.00
   13.5405     50.51     51.68    -20.30     24.00
   13.5506     51.13     51.77    -19.77     24.00
   13.5608     49.35     51.86    -21.64     24.00
   13.5710     49.71     51.95    -21.37     24.00
   13.5811     52.28     52.04    -18.89     24.00
   13.5913     51.99     52.13    -19.27     24.00
   13.6015     51.98     52.22    -19.37     24.00
   13.6116     51.48     52.31    -19.96     24.00
   13.6218     51.85     52.40    -19.68     24.00
   13.6320     51.78     52.49    -19.84     24.00
   13.6421     51.73     52.58    -19.98     24.00
   13.6523     51.35     52.67    -20.45     24.00
   13.6625     52.51     52.77    -19.39     24.00
   13.6726     51.94     52.86    -20.05     24.00
   13.6828     52.79     52.95    -19.29     24.00
   13.6929     52.14     53.04    -20.03     24.00
   13.7031     52.95     53.13    -19.31     24.00
   13.7133     52.07     53.22    -20.28     24.00
   13.7234     51.93     53.32    -20.52     24.00
   13.7336     52.97     53.41    -19.57     24.00
   13.7438     52.24     53.50    -20.39     24.00
   13.7539     52.96     53.59    -19.76     24.00
   13.7641     53.16     53.69    -19.66     24.00
   13.7743     52.65     53.78    -20.26     24.00
   13.7844     53.75     53.87    -19.25     24.00
   13.7946     53.61     53.97    -19.49     24.00
   13.8048     54.80     54.06    -18.39     24.00
   13.8149     52.71     54.15    -20.57     24.00
   13.8251     53.91     54.25    -19.47     24.00
   13.8352     52.60     54.34    -20.87     24.00
   13.8454     53.97     54.44    -19.60     24.00
   13.8556     53.90     54.53    -19.76     24.00
   13.8657     53.47     54.62    -20.28     24.00
   13.8759     53.26     54.72    -20.59     24.00
   13.8861     54.24     54.81    -19.70     24.00
   13.8962     53.11     54.91    -20.93     24.00
   13.9064     53.77     55.00    -20.36     24.00
   13.9166     55.87     55.10    -18.36     24.00
   13.9267     54.60     55.19    -19.72     24.00
   13.9369     53.62     55.29    -20.80     24.00
   13.9471     54.68     55.39    -19.84     24.00
   13.9572     55.19     55.48    -19.42     24.00
   13.9674     54.29     55.58    -20.42     24.00
   13.9776     54.96     55.68    -19.85     24.00
   13.9877     55.80     55.77    -19.10     24.00
   13.9979     55.07     55.87    -19.93     24.00
   14.0080     55.46     55.97    -19.64     24.00
   14.0182     55.52     56.06    -19.67     24.00
   14.0284     56.07     56.16    -19.22     24.00
   14.0385     56.18     56.26    -19.21     24.00
   14.0487     55.49     56.36    -20.00     24.00
   14.0589     55.48     56.45    -20.10     24.00
   14.0690     56.26     56.55    -19.42     24.00
   14.0792     56.69     56.65    -19.09     24.00
   14.0894     55.65     56.75    -20.23     24.00
   14.0995     55.71     56.85    -20.27     24.00
   14.1097     56.85     56.95    -19.23     24.00
   14.1199     56.63     57.05    -19.55     24.00
   14.1300     56.52     57.14    -19.75     24.00
   14.1402     56.71     57.24    -19.66     24.00
   14.1503     56.85     57.34    -19.62     24.00
   14.1605     56.75     57.44    -19.82     24.00
   14.1707     57.21     57.54    -19.46     24.00
   14.1808     57.48     57.64    -19.29     24.00
   14.1910     58.71     57.74    -18.16     24.00
   14.2012     57.01     57.85    -19.97     24.00
   14.2113     58.28     57.95    -18.80     24.00
   14.2215     57.66     58.05    -19.52     24.00
   14.2317     58.49     58.15    -18.79     24.00
   14.2418     57.84     58.25    -19.54     24.00
   14.2520     58.51     58.35    -18.97     24.00
   14.2622     59.24     58.46    -18.35     24.00
   14.2723     58.63     58.56    -19.06     24.00
   14.2825     58.40     58.66    -19.39     24.00
   14.2927     58.67     58.76    -19.22     24.00
   14.3028     57.84     58.87    -20.16     24.00
   14.3130     59.34     58.97    -18.76     24.00
   14.3231     58.73     59.07    -19.47     24.00
   14.3333     59.55     59.18    -18.76     24.00
   14.3435     60.18     59.28    -18.23     24.00
   14.3536     59.19     59.39    -19.33     24.00
   14.3638     59.44     59.49    -19.18     24.00
   14.3740     59.05     59.60    -19.68     24.00
   14.3841     60.31     59.70    -18.52     24.00
   14.3943     61.46     59.81    -17.48     24.00
   14.4045     61.47     59.91    -17.57     24.00
   14.4146     60.12     60.02    -19.03     24.00
   14.4248     60.61     60.12    -18.64     24.00
   14.4350     62.13     60.23    -17.23     24.00
   14.4451     60.03     60.34    -19.44     24.00
   14.4553     60.08     60.45    -19.50     24.00
   14.4654     60.38     60.55    -19.30     24.00
   14.4756     61.45     60.66    -18.34     24.00
   14.4858     60.71     60.77    -19.19     24.00
   14.4959     61.69     60.88    -18.32     24.00
   14.5061     61.70     60.99    -18.42     24.00
   14.5163     61.22     61.10    -19.01     24.00
   14.5264     61.41     61.21    -18.93     24.00
   14.5366     61.50     61.32    -18.95     24.00
   14.5468     61.40     61.43    -19.16     24.00
   14.5569     62.60     61.54    -18.07     24.00
   14.5671     61.99     61.65    -18.79     24.00
   14.5773     62.67     61.76    -18.22     24.00
   14.5874     62.58     61.87    -18.42     24.00
   14.5976     62.22     61.98    -18.89     24.00
   14.6078     62.05     62.10    -19.18     24.00
   14.6179     63.38     62.21    -17.96     24.00
   14.6281     62.60     62.32    -18.85     24.00
   14.6382     63.56     62.43    -18.00     24.00
   14.6484     63.27     62.55    -18.41     24.00
   14.6586     63.51     62.66    -18.28     24.00
   14.6687     63.81     62.78    -18.10     24.00
   14.6789     65.08     62.89    -16.94     24.00
   14.6891     64.06     63.01    -18.08     24.00
   14.6992     63.57     63.13    -18.69     24.00
   14.7094     63.98     63.24    -18.39     24.00
   14.7196     64.12     63.36    -18.37     24.00
   14.7297     64.50     63.48    -18.11     24.00
   14.7399     65.61     63.60    -17.12     24.00
   14.7501     64.80     63.71    -18.04     24.00
   14.7602     65.07     63.83    -17.89     24.00
   14.7704     66.21     63.95    -16.87     24.00
   14.7805     64.85     64.07    -18.35     24.00
   14.7907     65.05     64.19    -18.27     24.00
   14.8009     65.28     64.31    -18.16     24.00
   14.8110     65.84     64.43    -17.72     24.00
   14.8212     66.37     64.56    -17.32     24.00
   14.8314     65.87     64.68    -17.94     24.00
   14.8415     66.29     64.80    -17.64     24.00
   14.8517     65.75     64.93    -18.31     24.00
   14.8619     66.44     65.05    -17.74     24.00
   14.8720     67.05     65.18    -17.26     24.00
   14.8822     66.69     65.30    -17.74     24.00
   14.8924     67.38     65.43    -17.18     24.00
   14.9025     66.59     65.55    -18.09     24.00
   14.9127     68.16     65.68    -16.65     24.00
   14.9229     68.44     65.81    -16.50     24.00
   14.9330     68.09     65.94    -16.98     24.00
   14.9432     67.22     66.07    -17.98     24.00
   14.9533     67.23     66.20    -18.10     24.00
   14.9635     67.41     66.33    -18.05     24.00
   14.9737     69.34     66.46    -16.25     24.00
   14.9838     69.27     66.59    -16.45     24.00
   14.9940     68.68     66.72    -17.17     24.00
   15.0042     68.71     66.86    -17.28     24.00
   15.0143     68.56     66.99    -17.56     24.00
   15.0245     68.98     67.12    -17.27     24.00
   15.0347     68.79     67.26    -17.60     24.00
   15.0448     68.46     67.40    -18.07     24.00
   15.0550     68.15     67.53    -18.51     24.00
   15.0652     70.01     67.67    -16.79     24.00
   15.0753     69.15     67.81    -17.79     24.00
   15.0855     71.29     67.95    -15.79     24.00
   15.0956     71.27     68.09    -15.95     24.00
   15.1058     71.45     68.23    -15.91     24.00
   15.1160     70.83     68.37    -16.67     24.00
   15.1261     69.77     68.51    -17.87     24.00
   15.1363     70.32     68.66    -17.47     24.00
   15.1465     70.55     68.80    -17.38     24.00
   15.1566     71.87     68.94    -16.20     24.00
   15.1668     70.85     69.09    -17.37     24.00
   15.1770     71.65     69.24    -16.72     24.00
   15.1871     71.35     69.38    -17.16     24.00
   15.1973     71.51     69.53    -17.15     24.00
   15.2075     70.95     69.68    -17.86     24.00
   15.2176     71.11     69.83    -17.85     24.00
   15.2278     71.59     69.98    -17.52     24.00
   15.2380     73.01     70.13    -16.25     24.00
   15.2481     72.79     70.29    -16.63     24.00
   15.2583     73.18     70.44    -16.39     24.00
   15.2684     72.20     70.59    -17.52     24.00
   15.2786     72.45     70.75    -17.43     24.00
   15.2888     74.74     70.91    -15.30     24.00
   15.2989     72.93     71.06    -17.26     24.00
   15.3091     73.15     71.22    -17.20     24.00
   15.3193     73.55     71.38    -16.96     24.00
   15.3294     75.00     71.54    -15.67     24.00
   15.3396     73.89     71.71    -16.95     24.00
   15.3498     73.99     71.87    -17.01     24.00
   15.3599     75.90     72.03    -15.26     24.00
   15.3701     74.20     72.20    -17.13     24.00
   15.3803     75.96     72.36    -15.53     24.00
   15.3904     75.79     72.53    -15.87     24.00
   15.4006     75.48     72.70    -16.35     24.00
   15.4107     75.15     72.87    -16.85     24.00
   15.4209     73.52     73.04    -18.65     24.00
   15.4311     74.39     73.21    -17.95     24.00
   15.4412     75.80     73.38    -16.71     24.00
   15.4514     75.38     73.55    -17.30     24.00
   15.4616     76.68     73.73    -16.18     24.00
   15.4717     76.91     73.90    -16.12     24.00
   15.4819     77.20     74.08    -16.01     24.00
   15.4921     76.00     74.26    -17.39     24.00
   15.5022     77.77     74.44    -15.80     24.00
   15.5124     75.68     74.62    -18.07     24.00
   15.5226     78.09     74.80    -15.84     24.00
   15.5327     77.57     74.98    -16.54     24.00
   15.5429     76.18     75.17    -18.12     24.00
   15.5530     76.77     75.35    -17.71     24.00
   15.5632     77.53     75.54    -17.14     24.00
   15.5734     78.04     75.73    -16.82     24.00
   15.5835     79.90     75.92    -15.15     24.00
   15.5937     77.95     76.11    -17.29     24.00
   15.6039     78.97     76.30    -16.46     24.00
   15.6140     80.43     76.49    -15.19     24.00
   15.6242     79.04     76.68    -16.77     24.00
   15.6344     79.01     76.88    -17.00     24.00
   15.6445     78.82     77.08    -17.39     24.00
   15.6547     79.11     77.27    -17.29     24.00
   15.6649     80.41     77.47    -16.19     24.00
   15.6750     80.22     77.67    -16.58     24.00
   15.6852     80.55     77.87    -16.45     24.00
   15.6954     78.60     78.08    -18.61     24.00
   15.7055     82.51     78.28    -14.90     24.00
   15.7157     81.52     78.49    -16.10     24.00
   15.7258     80.56     78.69    -17.26     24.00
   15.7360     81.45     78.90    -16.58     24.00
   15.7462     80.49     79.11    -17.75     24.00
   15.7563     81.84     79.32    -16.61     24.00
   15.7665     81.43     79.53    -17.23     24.00
   15.7767     81.91     79.74    -16.96     24.00
   15.7868     82.46     79.96    -16.63     24.00
   15.7970     83.78     80.17    -15.52     24.00
   15.8072     83.13     80.39    -16.39     24.00
   15.8173     82.32     80.60    -17.41     24.00
   15.8275     82.93     80.82    -17.02     24.00
   15.8377     82.77     81.05    -17.41     24.00
   15.8478     82.47     81.27    -17.93     24.00
   15.8580     82.21     81.49    -18.41     24.00
   15.8681     83.02     81.71    -17.82     24.00
   15.8783     82.96     81.94    -18.11     24.00
   15.8885     84.13     82.16    -17.16     24.00
   15.8986     85.29     82.39    -16.23     24.00
   15.9088     84.29     82.62    -17.46     24.00
   15.9190     85.18     82.85    -16.80     24.00
   15.9291     84.67     83.08    -17.54     24.00
   15.9393     84.57     83.31    -17.87     24.00
   15.9495     85.37     83.55    -17.31     24.00
   15.9596     84.55     83.78    -18.36     24.00
   15.9698     84.89     84.02    -18.26     24.00
   15.9800     85.30     84.26    -18.09     24.00
   15.9901     85.84     84.49    -17.78     24.00
   16.0003     86.07     84.73    -17.79     24.00
   16.0105     86.35     84.97    -17.75     24.00
   16.0206     86.09     85.21    -18.25     24.00
   16.0308     87.95     85.46    -16.64     24.00
   16.0409     86.33     85.70    -18.50     24.00
   16.0511     87.40     85.95    -17.68     24.00
   16.0613     87.01     86.19    -18.31     24.00
   16.0714     86.58     86.44    -18.99     24.00
   16.0816     88.32     86.69    -17.50     24.00
   16.0918     87.73     86.94    -18.34     24.00
   16.1019     88.43     87.19    -17.89     24.00
   16.1121     88.70     87.44    -17.87     24.00
   16.1223     89.36     87.69    -17.46     24.00
   16.1324     89.35     87.94    -17.72     24.00
   16.1426     89.34     88.20    -17.99     24.00
   16.1528     89.20     88.45    -18.38     24.00
   16.1629     90.56     88.71    -17.28     24.00
   16.1731     89.85     88.96    -18.24     24.00
   16.1832     90.49     89.22    -17.86     24.00
   16.1934     90.71     89.48    -17.90     24.00
   16.2036     90.28     89.74    -18.59     24.00
   16.2137     90.75     90.00    -18.38     24.00
   16.2239     90.61     90.26    -18.78     24.00
   16.2341     91.32     90.52    -18.33     24.00
   16.2442     89.84     90.78    -20.07     24.00
   16.2544     91.26     91.04    -18.91     24.00
   16.2646     92.41     91.31    -18.03     24.00
   16.2747     93.18     91.57    -17.52     24.00
   16.2849     93.06     91.84    -17.91     24.00
   16.2951     92.25     92.10    -18.98     24.00
   16.3052     92.20     92.37    -19.30     24.00
   16.3154     93.17     92.63    -18.59     24.00
   16.3256     92.36     92.90    -19.67     24.00
   16.3357     93.15     93.17    -19.15     24.00
   16.3459     92.78     93.43    -19.78     24.00
   16.3560     93.52     93.70    -19.31     24.00
   16.3662     94.80     93.97    -18.30     24.00
   16.3764     93.15     94.24    -20.22     24.00
   16.3865     94.10     94.51    -19.54     24.00
   16.3967     94.32     94.78    -19.59     24.00
   16.4069     94.69     95.05    -19.49     24.00
   16.4170     96.79     95.32    -17.66     24.00
   16.4272     96.58     95.59    -18.14     24.00
   16.4374     95.28     95.86    -19.71     24.00
   16.4475     96.36     96.13    -18.90     24.00
   16.4577     96.27     96.40    -19.26     24.00
   16.4679     96.46     96.67    -19.34     24.00
   16.4780     96.46     96.94    -19.61     24.00
   16.4882     97.04     97.21    -19.30     24.00
   16.4983     95.54     97.48    -21.07     24.00
   16.5085     97.73     97.75    -19.15     24.00
   16.5187     96.09     98.02    -21.06     24.00
   16.5288     97.37     98.29    -20.05     24.00
   16.5390     99.49     98.56    -18.20     24.00
   16.5492     97.49     98.83    -20.47     24.00
   16.5593     99.42     99.09    -18.80     24.00
   16.5695     97.57     99.36    -20.92     24.00
   16.5797     99.38     99.63    -19.38     24.00
   16.5898     99.57     99.90    -19.46     24.00
   16.6000    100.30    100.17    -19.00     24.00
   16.6102     99.26    100.43    -20.30     24.00
   16.6203     99.38    100.70    -20.45     24.00
   16.6305    100.86    100.97    -19.24     24.00
   16.6407    100.32    101.23    -20.04     24.00
   16.6508    101.37    101.49    -19.25     24.00
   16.6610    100.02    101.76    -20.87     24.00
   16.6711     99.28    102.02    -21.87     24.00
   16.6813    100.41    102.28    -21.00     24.00
   16.6915    101.93    102.55    -19.75     24.00
   16.7016    102.02    102.80    -19.91     24.00
   16.7118    102.90    103.07    -19.30     24.00
   16.7220    101.93    103.32    -20.52     24.00
   16.7321    103.24    103.58    -19.47     24.00
   16.7423    102.63    103.84    -20.34     24.00
   16.7525    102.67    104.09    -20.55     24.00
   16.7626    103.29    104.35    -20.19     24.00
   16.7728    103.81    104.60    -19.92     24.00
   16.7830    103.49    104.86    -20.50     24.00
   16.7931    102.41    105.10    -21.82     24.00
   16.8033    103.37    105.35    -21.11     24.00
   16.8134    103.43    105.60    -21.30     24.00
   16.8236    105.06    105.85    -19.92     24.00
   16.8338    103.94    106.10    -21.29     24.00
   16.8439    104.82    106.34    -20.65     24.00
   16.8541    103.74    106.58    -21.97     24.00
   16.8643    104.32    106.82    -21.63     24.00
   16.8744    105.14    107.06    -21.05     24.00
   16.8846    105.95    107.30    -20.48     24.00
   16.8948    105.13    107.54    -21.54     24.00
   16.9049    106.07    107.77    -20.83     24.00
   16.9151    105.68    108.01    -21.46     24.00
   16.9253    105.88    108.24    -21.49     24.00
   16.9354    107.87    108.47    -19.73     24.00
   16.9456    105.87    108.70    -21.96     24.00
   16.9558    106.67    108.92    -21.38     24.00
   16.9659    106.38    109.15    -21.90     24.00
   16.9761    106.70    109.37    -21.80     24.00
   16.9862    106.77    109.59    -21.95     24.00
   16.9964    107.83    109.81    -21.11     24.00
   17.0066    107.84    110.03    -21.32     24.00
   17.0167    106.42    110.24    -22.95     24.00
   17.0269    107.32    110.45    -22.26     24.00
   17.0371    108.35    110.66    -21.44     24.00
   17.0472    109.51    110.87    -20.49     24.00
   17.0574    109.28    111.08    -20.93     24.00
   17.0676    109.71    111.29    -20.71     24.00
   17.0777    109.71    111.49    -20.91     24.00
   17.0879    108.67    111.69    -22.15     24.00
   17.0981    109.29    111.89    -21.73     24.00
   17.1082    108.68    112.09    -22.54     24.00
   17.1184    111.02    112.28    -20.39     24.00
   17.1285    110.77    112.47    -20.83     24.00
   17.1387    109.60    112.67    -22.20     24.00
   17.1489    111.37    112.86    -20.62     24.00
   17.1590    110.96    113.04    -21.21     24.00
   17.1692    110.70    113.23    -21.66     24.00
   17.1794    112.26    113.41    -20.28     24.00
   17.1895    110.63    113.60    -22.10     24.00
   17.1997    111.06    113.78    -21.85     24.00
   17.2099    113.98    113.96    -19.11     24.00
   17.2200    112.60    114.13    -20.66     24.00
   17.2302    111.55    114.31    -21.89     24.00
   17.2404    115.68    114.49    -17.94     24.00
   17.2505    111.82    114.66    -21.97     24.00
   17.2607    112.38    114.83    -21.58     24.00
   17.2709    113.10    115.01    -21.04     24.00
   17.2810    114.24    115.18    -20.07     24.00
   17.2912    114.90    115.35    -19.58     24.00
   17.3013    114.79    115.52    -19.86     24.00
   17.3115    113.80    115.69    -21.02     24.00
   17.3217    117.06    115.86    -17.93     24.00
   17.3318    116.58    116.03    -18.58     24.00
   17.3420    115.29    116.20    -20.04     24.00
   17.3522    115.81    116.37    -19.69     24.00
   17.3623    116.77    116.54    -18.90     24.00
   17.3725    116.60    116.71    -19.24     24.00
   17.3827    117.13    116.88    -18.88     24.00
   17.3928    116.68    117.06    -19.51     24.00
   17.4030    117.09    117.24    -19.28     24.00
   17.4132    116.79    117.42    -19.76     24.00
   17.4233    118.90    117.60    -17.83     24.00
   17.4335    118.84    117.78    -18.07     24.00
   17.4436    118.38    117.97    -18.72     24.00
   17.4538    120.19    118.16    -17.10     24.00
   17.4640    119.13    118.36    -18.36     24.00
   17.4741    120.15    118.56    -17.54     24.00
   17.4843    119.96    118.77    -17.94     24.00
   17.4945    119.45    118.98    -18.66     24.00
   17.5046    121.24    119.20    -17.09     24.00
   17.5148    121.31    119.42    -17.24     24.00
   17.5250    119.99    119.66    -18.80     24.00
   17.5351    121.52    119.89    -17.50     24.00
   17.5453    121.76    120.14    -17.51     24.00
   17.5555    121.34    120.40    -18.19     24.00
   17.5656    121.23    120.67    -18.57     24.00
   17.5758    122.55    120.95    -17.53     24.00
   17.5859    121.60    121.24    -18.77     24.00
   17.5961    122.84    121.54    -17.83     24.00
   17.6063    126.21    121.85    -14.77     24.00
   17.6164    125.10    122.18    -16.21     24.00
   17.6266    123.10    122.52    -18.55     24.00
   17.6368    126.74    122.88    -15.27     24.00
   17.6469    126.84    123.25    -15.54     24.00
   17.6571    126.17    123.64    -16.60     24.00
   17.6673    128.29    124.05    -14.89     24.00
   17.6774    125.98    124.48    -17.63     24.00
   17.6876    127.40    124.92    -16.65     24.00
   17.6978    129.16    125.39    -15.36     24.00
   17.7079    128.25    125.87    -16.75     24.00
   17.7181    128.52    126.38    -16.99     24.00
   17.7283    130.63    126.91    -15.41     24.00
   17.7384    128.37    127.46    -18.22     24.00
   17.7486    132.07    128.04    -15.10     24.00
   17.7587    133.34    128.64    -14.43     24.00
   17.7689    134.14    129.28    -14.27     24.00
   17.7791    134.43    129.93    -14.63     24.00
   17.7892    132.34    130.61    -17.40     24.00
   17.7994    134.21    131.33    -16.25     24.00
   17.8096    134.41    132.07    -16.79     24.00
   17.8197    135.99    132.84    -15.98     24.00
   17.8299    134.94    133.64    -17.83     24.00
   17.8401    136.71    134.48    -16.90     24.00
   17.8502    136.32    135.34    -18.15     24.00
   17.8604    137.76    136.24    -17.61     24.00
   17.8706    138.90    137.17    -17.40     24.00
   17.8807    141.13    138.13    -16.13     24.00
   17.8909    140.66    139.12    -17.59     24.00
   17.9010    140.93    140.15    -18.35     24.00
   17.9112    142.88    141.21    -17.46     24.00
   17.9214    142.72    142.31    -18.72     24.00
   17.9315    143.98    143.44    -18.59     24.00
   17.9417    144.87    144.61    -18.87     24.00
   17.9519    145.99    145.81    -18.95     24.00
   17.9620    144.91    147.03    -21.25     24.00
   17.9722    149.80    148.30    -17.63     24.00
   17.9824    147.17    149.60    -21.56     24.00
   17.9925    151.38    150.92    -18.67     24.00
   18.0027    151.43    152.29    -19.99     24.00
   18.0129    152.48    153.69    -20.34     24.00
   18.0230    151.06    155.10    -23.17     24.00
   18.0332    155.95    156.56    -19.74     24.00
   18.0434    155.45    158.04    -21.72     24.00
   18.0535    157.05    159.54    -21.62     24.00
   18.0637    158.59    161.08    -21.62     24.00
   18.0738    157.73    162.63    -24.03     24.00
   18.0840    160.79    164.21    -22.55     24.00
   18.0942    164.19    165.82    -20.76     24.00
   18.1043    163.96    167.43    -22.60     24.00
   18.1145    163.23    169.07    -24.97     24.00
   18.1247    167.01    170.73    -22.85     24.00
   18.1348    167.91    172.39    -23.61     24.00
   18.1450    168.91    174.07    -24.29     24.00
   18.1552    171.77    175.76    -23.12     24.00
   18.1653    172.49    177.45    -24.09     24.00
   18.1755    173.25    179.15    -25.03     24.00
   18.1857    180.05    180.85    -19.93     24.00
   18.1958    178.22    182.54    -23.45     24.00
   18.2060    179.12    184.24    -24.25     24.00
   18.2161    182.98    185.92    -22.07     24.00
   18.2263    186.89    187.61    -19.85     24.00
   18.2365    185.61    189.28    -22.80     24.00
   18.2466    188.03    190.92    -22.02     24.00
   18.2568    190.69    192.57    -21.01     24.00
   18.2670    189.52    194.19    -23.80     24.00
   18.2771    194.10    195.77    -20.80     24.00
   18.2873    193.79    197.34    -22.68     24.00
   18.2975    195.12    198.88    -22.89     24.00
   18.3076    200.95    200.37    -18.55     24.00
   18.3178    202.13    201.84    -18.84     24.00
   18.3280    201.98    203.27    -20.42     24.00
   18.3381    206.44    204.65    -17.34     24.00
   18.3483    207.83    206.00    -17.30     24.00
   18.3585    207.04    207.29    -19.38     24.00
   18.3686    210.38    208.53    -17.28     24.00
   18.3788    210.76    209.73    -18.10     24.00
   18.3889    212.23    210.86    -17.76     24.00
   18.3991    214.71    211.94    -16.36     24.00
   18.4093    213.37    212.97    -18.73     24.00
   18.4194    214.15    213.92    -18.90     24.00
   18.4296    218.23    214.82    -15.72     24.00
   18.4398    219.95    215.65    -14.83     24.00
   18.4499    220.57    216.40    -14.96     24.00
   18.4601    222.66    217.10    -13.57     24.00
   18.4703    223.59    217.72    -13.26     24.00
   18.4804    223.41    218.26    -13.98     24.00
   18.4906    225.43    218.74    -12.44     24.00
   18.5008    225.62    219.14    -12.65     24.00
   18.5109    224.45    219.46    -14.14     24.00
   18.5211    225.51    219.70    -13.32     24.00
   18.5312    227.01    219.87    -11.99     24.00
   18.5414    226.02    219.97    -13.08     24.00
   18.5516    227.02    219.98    -12.09     24.00
   18.5617    227.05    219.92    -12.00     24.00
   18.5719    224.52    219.78    -14.39     24.00
   18.5821    225.65    219.56    -13.04     24.00
   18.5922    223.87    219.27    -14.53     24.00
   18.6024    221.74    218.90    -16.29     24.00
   18.6126    225.24    218.46    -12.35     24.00
   18.6227    222.11    217.95    -14.97     24.00
   18.6329    221.29    217.36    -15.20     24.00
   18.6431    220.51    216.69    -15.31     24.00
   18.6532    218.39    215.97    -16.71     24.00
   18.6634    216.05    215.17    -18.25     24.00
   18.6736    213.73    214.31    -19.71     24.00
   18.6837    215.26    213.39    -17.26     24.00
   18.6939    212.55    212.40    -18.98     24.00
   18.7040    212.57    211.36    -17.92     24.00
   18.7142    212.33    210.25    -17.05     24.00
   18.7244    206.05    209.09    -22.17     24.00
   18.7345    206.40    207.89    -20.62     24.00
   18.7447    206.95    206.63    -18.81     24.00
   18.7549    200.99    205.32    -23.46     24.00
   18.7650    201.55    203.98    -21.56     24.00
   18.7752    199.40    202.59    -22.32     24.00
   18.7854    196.44    201.15    -23.84     24.00
   18.7955    195.62    199.70    -23.21     24.00
   18.8057    193.85    198.21    -23.49     24.00
   18.8159    192.18    196.68    -23.63     24.00
   18.8260    188.27    195.14    -26.00     24.00
   18.8362    189.60    193.57    -23.10     24.00
   18.8463    186.95    191.99    -24.17     24.00
   18.8565    185.88    190.38    -23.63     24.00
   18.8667    184.30    188.76    -23.59     24.00
   18.8768    181.48    187.14    -24.79     24.00
   18.8870    180.10    185.50    -24.53     24.00
   18.8972    178.60    183.86    -24.39     24.00
   18.9073    176.64    182.23    -24.72     24.00
   18.9175    174.20    180.58    -25.51     24.00
   18.9277    175.04    178.94    -23.03     24.00
   18.9378    172.40    177.32    -24.05     24.00
   18.9480    172.70    175.69    -22.12     24.00
   18.9582    171.41    174.08    -21.80     24.00
   18.9683    167.12    172.49    -24.50     24.00
   18.9785    168.93    170.91    -21.11     24.00
   18.9887    166.86    169.34    -21.61     24.00
   18.9988    165.85    167.81    -21.09     24.00
   19.0090    165.13    166.28    -20.28     24.00
   19.0191    163.70    164.80    -20.23     24.00
   19.0293    161.49    163.32    -20.96     24.00
   19.0395    160.73    161.87    -20.27     24.00
   19.0496    159.47    160.47    -20.13     24.00
   19.0598    158.01    159.08    -20.20     24.00
   19.0700    157.43    157.72    -19.42     24.00
   19.0801    157.82    156.41    -17.72     24.00
   19.0903    154.32    155.12    -19.93     24.00
   19.1005    154.01    153.86    -18.98     24.00
   19.1106    152.55    152.65    -19.23     24.00
   19.1208    151.35    151.46    -19.24     24.00
   19.1310    151.79    150.31    -17.65     24.00
   19.1411    150.23    149.21    -18.11     24.00
   19.1513    149.83    148.13    -17.43     24.00
   19.1614    149.51    147.10    -16.72     24.00
   19.1716    148.10    146.10    -17.13     24.00
   19.1818    146.74    145.13    -17.52     24.00
   19.1919    147.04    144.22    -16.31     24.00
   19.2021    147.28    143.33    -15.18     24.00
   19.2123    145.87    142.47    -15.73     24.00
   19.2224    145.39    141.67    -15.41     24.00
   19.2326    142.68    140.89    -17.34     24.00
   19.2428    143.09    140.15    -16.19     24.00
   19.2529    142.29    139.45    -16.29     24.00
   19.2631    142.95    138.78    -14.96     24.00
   19.2733    142.83    138.14    -14.44     24.00
   19.2834    140.29    137.54    -16.38     24.00
   19.2936    141.40    136.98    -14.71     24.00
   19.3038    139.73    136.44    -15.84     24.00
   19.3139    140.43    135.94    -14.64     24.00
   19.3241    139.20    135.47    -15.40     24.00
   19.3342    139.51    135.03    -14.65     24.00
   19.3444    139.22    134.62    -14.53     24.00
   19.3546    138.20    134.23    -15.16     24.00
   19.3647    138.46    133.88    -14.55     24.00
   19.3749    138.23    133.55    -14.45     24.00
   19.3851    137.43    133.24    -14.94     24.00
   19.3952    136.54    132.97    -15.56     24.00
   19.4054    137.38    132.71    -14.46     24.00
   19.4156    135.45    132.48    -16.16     24.00
   19.4257    134.21    132.27    -17.19     24.00
   19.4359    133.74    132.09    -17.48     24.00
   19.4461    135.90    131.92    -15.15     24.00
   19.4562    135.82    131.77    -15.08     24.00
   19.4664    136.27    131.64    -14.50     24.00
   19.4765    133.82    131.53    -16.84     24.00
   19.4867    131.12    131.44    -19.45     24.00
   19.4969    134.01    131.36    -16.48     24.00
   19.5070    133.88    131.29    -16.54     24.00
   19.5172    133.74    131.24    -16.63     24.00
   19.5274    132.80    131.21    -17.54     24.00
   19.5375    132.99    131.18    -17.32     24.00
   19.5477    133.91    131.17    -16.39     24.00
   19.5579    133.38    131.17    -16.92     24.00
   19.5680    131.86    131.18    -18.45     24.00
   19.5782    131.85    131.20    -18.48     24.00
   19.5884    131.99    131.23    -18.37     24.00
   19.5985    132.48    131.26    -17.91     24.00
   19.6087    131.27    131.31    -19.17     24.00
   19.6188    131.23    131.36    -19.26     24.00
   19.6290    133.16    131.42    -17.39     24.00
   19.6392    130.45    131.48    -20.16     24.00
   19.6493    130.59    131.55    -20.09     24.00
   19.6595    131.21    131.62    -19.54     24.00
   19.6697    131.18    131.70    -19.65     24.00
   19.6798    132.66    131.78    -18.25     24.00
   19.6900    129.24    131.87    -21.76     24.00
   19.7002    128.62    131.95    -22.46     24.00
   19.7103    130.40    132.04    -20.77     24.00
   19.7205    131.62    132.13    -19.64     24.00
   19.7307    129.76    132.23    -21.60     24.00
   19.7408    130.65    132.32    -20.80     24.00
   19.7510    130.88    132.41    -20.66     24.00
   19.7612    131.00    132.51    -20.64     24.00
   19.7713    130.82    132.60    -20.91     24.00
   19.7815    131.06    132.70    -20.77     24.00
   19.7916    130.80    132.79    -21.12     24.00
   19.8018    130.57    132.89    -21.45     24.00
   19.8120    131.63    132.98    -20.48     24.00
   19.8221    129.44    133.07    -22.76     24.00
   19.8323    129.91    133.16    -22.38     24.00
   19.8425    129.73    133.25    -22.65     24.00
   19.8526    127.29    133.33    -25.17     24.00
   19.8628    129.80    133.42    -22.75     24.00
   19.8730    130.22    133.50    -22.41     24.00
   19.8831    127.76    133.57    -24.94     24.00
   19.8933    129.96    133.65    -22.82     24.00
   19.9035    130.77    133.72    -22.08     24.00
   19.9136    128.73    133.79    -24.19     24.00
   19.9238    130.89    133.85    -22.09     24.00
   19.9339    128.69    133.92    -24.36     24.00
   19.9441    128.67    133.97    -24.43     24.00
   19.9543    130.48    134.03    -22.68     24.00
   19.9644    131.33    134.08    -21.88     24.00
   19.9746    129.45    134.13    -23.81     24.00
   19.9848    130.48    134.17    -22.82     24.00
   19.9949    131.66    134.21    -21.68     24.00
   20.0051    129.66    134.24    -23.71     24.00
   20.0153    129.21    134.27    -24.19     24.00
   20.0254    131.14    134.30    -22.29     24.00
   20.0356    129.07    134.32    -24.38     24.00
   20.0458    130.95    134.33    -22.51     24.00
   20.0559    130.81    134.34    -22.66     24.00
   20.0661    127.99    134.35    -25.49     24.00
   20.0763    131.81    134.35    -21.67     24.00
   20.0864    130.46    134.35    -23.02     24.00
   20.0966    131.15    134.34    -22.32     24.00
   20.1067    133.04    134.33    -20.42     24.00
   20.1169    132.96    134.31    -20.48     24.00
   20.1271    132.12    134.29    -21.30     24.00
   20.1372    130.77    134.26    -22.62     24.00
   20.1474    131.29    134.23    -22.07     24.00
   20.1576    132.23    134.19    -21.09     24.00
   20.1677    132.29    134.15    -20.99     24.00
   20.1779    134.02    134.10    -19.21     24.00
   20.1881    130.05    134.05    -23.13     24.00
   20.1982    132.62    133.99    -20.50     24.00
   20.2084    131.27    133.93    -21.79     24.00
   20.2186    134.26    133.86    -18.73     24.00
   20.2287    132.92    133.79    -20.00     24.00
   20.2389    134.01    133.71    -18.83     24.00
   20.2490    133.44    133.63    -19.32     24.00
   20.2592    133.05    133.54    -19.62     24.00
   20.2694    134.12    133.45    -18.46     24.00
   20.2795    133.70    133.35    -18.78     24.00
   20.2897    136.18    133.25    -16.20     24.00
   20.2999    133.96    133.14    -18.31     24.00
   20.3100    133.13    133.03    -19.03     24.00
   20.3202    134.29    132.91    -17.75     24.00
   20.3304    136.12    132.79    -15.80     24.00
   20.3405    134.54    132.67    -17.26     24.00
   20.3507    133.71    132.53    -17.95     24.00
   20.3609    133.80    132.40    -17.73     24.00
   20.3710    132.01    132.26    -19.38     24.00
   20.3812    135.42    132.11    -15.82     24.00
   20.3914    133.90    131.96    -17.19     24.00
   20.4015    134.21    131.81    -16.73     24.00
   20.4117    132.69    131.65    -18.09     24.00
   20.4218    135.26    131.49    -15.36     24.00
   20.4320    132.30    131.32    -18.15     24.00
   20.4422    133.90    131.15    -16.38     24.00
   20.4523    134.19    130.98    -15.92     24.00
   20.4625    132.57    130.80    -17.36     24.00
   20.4727    134.99    130.61    -14.75     24.00
   20.4828    135.24    130.43    -14.32     24.00
   20.4930    134.54    130.24    -14.83     24.00
   20.5032    133.63    130.04    -15.54     24.00
   20.5133    135.18    129.84    -13.79     24.00
   20.5235    132.53    129.64    -16.24     24.00
   20.5337    134.76    129.44    -13.81     24.00
   20.5438    132.91    129.23    -15.45     24.00
   20.5540    131.64    129.02    -16.51     24.00
   20.5641    133.07    128.80    -14.86     24.00
   20.5743    132.46    128.59    -15.26     24.00
   20.5845    131.23    128.37    -16.27     24.00
   20.5946    131.84    128.14    -15.43     24.00
   20.6048    133.62    127.92    -13.43     24.00
   20.6150    131.10    127.69    -15.72     24.00
   20.6251    131.75    127.46    -14.84     24.00
   20.6353    131.46    127.23    -14.90     24.00
   20.6455    128.71    126.99    -17.41     24.00
   20.6556    131.62    126.76    -14.27     24.00
   20.6658    130.23    126.52    -15.42     24.00
   20.6760    129.64    126.28    -15.77     24.00
   20.6861    129.50    126.04    -15.67     24.00
   20.6963    127.99    125.79    -16.93     24.00
   20.7065    127.63    125.55    -17.05     24.00
   20.7166    129.46    125.30    -14.97     24.00
   20.7268    129.53    125.06    -14.66     24.00
   20.7369    126.82    124.81    -17.12     24.00
   20.7471    126.76    124.56    -16.93     24.00
   20.7573    127.03    124.31    -16.41     24.00
   20.7674    126.54    124.07    -16.66     24.00
   20.7776    126.10    123.82    -16.85     24.00
   20.7878    126.57    123.57    -16.13     24.00
   20.7979    124.34    123.32    -18.11     24.00
   20.8081    125.24    123.07    -16.96     24.00
   20.8183    123.63    122.82    -18.32     24.00
   20.8284    123.68    122.58    -18.03     24.00
   20.8386    124.17    122.33    -17.29     24.00
   20.8488    122.54    122.08    -18.67     24.00
   20.8589    122.72    121.84    -18.25     24.00
   20.8691    121.90    121.60    -18.83     24.00
   20.8792    123.34    121.36    -17.15     24.00
   20.8894    122.79    121.12    -17.46     24.00
   20.8996    121.40    120.88    -18.61     24.00
   20.9097    121.01    120.65    -18.77     24.00
   20.9199    118.93    120.41    -20.61     24.00
   20.9301    119.64    120.18    -19.67     24.00
   20.9402    121.21    119.96    -17.88     24.00
   20.9504    117.65    119.73    -21.21     24.00
   20.9606    117.97    119.51    -20.67     24.00
   20.9707    119.08    119.29    -19.34     24.00
   20.9809    117.12    119.08    -21.09     24.00
   20.9911    119.61    118.87    -18.39     24.00
   21.0012    118.61    118.66    -19.18     24.00
   21.0114    116.99    118.46    -20.60     24.00
   21.0216    117.69    118.26    -19.70     24.00
   21.0317    118.57    118.07    -18.63     24.00
   21.0419    115.42    117.88    -21.59     24.00
   21.0520    116.89    117.69    -19.93     24.00
   21.0622    117.80    117.52    -18.85     24.00
   21.0724    115.84    117.34    -20.63     24.00
   21.0825    118.15    117.18    -18.16     24.00
   21.0927    115.40    117.01    -20.74     24.00
   21.1029    115.60    116.86    -20.39     24.00
   21.1130    114.94    116.71    -20.90     24.00
   21.1232    115.04    116.57    -20.66     24.00
   21.1334    117.04    116.43    -18.52     24.00
   21.1435    114.73    116.30    -20.70     24.00
   21.1537    113.86    116.18    -21.45     24.00
   21.1639    113.11    116.06    -22.08     24.00
   21.1740    115.28    115.96    -19.81     24.00
   21.1842    113.96    115.86    -21.03     24.00
   21.1943    113.88    115.77    -21.02     24.00
   21.2045    113.80    115.68    -21.01     24.00
   21.2147    113.31    115.60    -21.42     24.00
   21.2248    113.46    115.54    -21.21     24.00
   21.2350    115.01    115.48    -19.60     24.00
   21.2452    114.56    115.43    -20.00     24.00
   21.2553    113.93    115.39    -20.59     24.00
   21.2655    113.69    115.35    -20.79     24.00
   21.2757    113.30    115.33    -21.16     24.00
   21.2858    112.38    115.32    -22.07     24.00
   21.2960    114.20    115.31    -20.24     24.00
   21.3062    112.51    115.32    -21.94     24.00
   21.3163    113.41    115.33    -21.05     24.00
   21.3265    114.03    115.36    -20.46     24.00
   21.3366    114.54    115.39    -19.98     24.00
   21.3468    111.28    115.44    -23.29     24.00
   21.3570    114.05    115.49    -20.57     24.00
   21.3671    113.55    115.56    -21.14     24.00
   21.3773    112.48    115.63    -22.28     24.00
   21.3875    113.04    115.72    -21.81     24.00
   21.3976    114.40    115.82    -20.55     24.00
   21.4078    113.14    115.92    -21.91     24.00
   21.4180    112.66    116.04    -22.51     24.00
   21.4281    113.88    116.17    -21.42     24.00
   21.4383    113.77    116.31    -21.67     24.00
   21.4485    113.52    116.46    -22.07     24.00
   21.4586    113.50    116.62    -22.25     24.00
   21.4688    112.01    116.79    -23.91     24.00
   21.4790    115.96    116.97    -20.14     24.00
   21.4891    116.16    117.16    -20.13     24.00
   21.4993    113.35    117.37    -23.15     24.00
   21.5094    114.67    117.58    -22.04     24.00
   21.5196    117.25    117.80    -19.68     24.00
   21.5298    114.97    118.04    -22.20     24.00
   21.5399    115.82    118.28    -21.59     24.00
   21.5501    118.28    118.54    -19.39     24.00
   21.5603    115.79    118.80    -22.14     24.00
   21.5704    118.23    119.08    -19.98     24.00
   21.5806    116.87    119.36    -21.62     24.00
   21.5908    115.60    119.66    -23.19     24.00
   21.6009    119.12    119.96    -19.97     24.00
   21.6111    118.54    120.27    -20.86     24.00
   21.6213    116.38    120.59    -23.34     24.00
   21.6314    120.29    120.92    -19.76     24.00
   21.6416    119.09    121.26    -21.30     24.00
   21.6517    120.12    121.61    -20.62     24.00
   21.6619    121.10    121.96    -19.99     24.00
   21.6721    122.11    122.33    -19.35     24.00
   21.6822    122.59    122.70    -19.24     24.00
   21.6924    125.20    123.08    -17.01     24.00
   21.7026    122.84    123.46    -19.75     24.00
   21.7127    122.75    123.85    -20.23     24.00
   21.7229    125.07    124.25    -18.31     24.00
   21.7331    126.51    124.65    -17.27     24.00
   21.7432    125.62    125.06    -18.57     24.00
   21.7534    126.63    125.48    -17.98     24.00
   21.7636    126.34    125.90    -18.69     24.00
   21.7737    125.89    126.32    -19.56     24.00
   21.7839    127.61    126.74    -18.26     24.00
   21.7941    131.01    127.18    -15.30     24.00
   21.8042    128.37    127.61    -18.37     24.00
   21.8144    130.26    128.04    -16.91     24.00
   21.8245    131.13    128.48    -16.48     24.00
   21.8347    129.60    128.92    -18.45     24.00
   21.8449    132.04    129.36    -16.45     24.00
   21.8550    133.35    129.80    -15.58     24.00
   21.8652    132.30    130.24    -17.07     24.00
   21.8754    133.66    130.69    -16.16     24.00
   21.8855    133.66    131.12    -16.59     24.00
   21.8957    134.69    131.56    -16.00     24.00
   21.9059    133.77    132.00    -17.36     24.00
   21.9160    134.52    132.43    -17.04     24.00
   21.9262    135.38    132.87    -16.62     24.00
   21.9364    133.85    133.30    -18.58     24.00
   21.9465    135.93    133.72    -16.92     24.00
   21.9567    133.79    134.14    -19.48     24.00
   21.9668    136.97    134.55    -16.71     24.00
   21.9770    137.90    134.96    -16.19     24.00
   21.9872    137.16    135.37    -17.34     24.00
   21.9973    137.32    135.76    -17.57     24.00
   22.0075    138.58    136.16    -16.71     24.00
   22.0177    137.90    136.54    -17.77     24.00
   22.0278    138.96    136.91    -17.08     24.00
   22.0380    138.42    137.28    -17.99     24.00
   22.0482    138.13    137.63    -18.63     24.00
   22.0583    138.93    137.98    -18.18     24.00
   22.0685    140.22    138.31    -17.22     24.00
   22.0787    139.99    138.64    -17.78     24.00
   22.0888    141.58    138.95    -16.50     24.00
   22.0990    140.86    139.26    -17.53     24.00
   22.1092    141.20    139.55    -17.48     24.00
   22.1193    140.88    139.82    -18.07     24.00
   22.1295    141.89    140.09    -17.33     24.00
   22.1396    141.30    140.34    -18.17     24.00
   22.1498    142.15    140.58    -17.56     24.00
   22.1600    141.45    140.80    -18.48     24.00
   22.1701    142.43    141.01    -17.71     24.00
   22.1803    142.44    141.20    -17.89     24.00
   22.1905    144.35    141.38    -16.16     24.00
   22.2006    141.05    141.54    -19.62     24.00
   22.2108    142.71    141.69    -18.11     24.00
   22.2210    145.09    141.82    -15.86     24.00
   22.2311    144.49    141.93    -16.57     24.00
   22.2413    144.54    142.02    -16.61     24.00
   22.2515    142.73    142.10    -18.50     24.00
   22.2616    139.31    142.16    -21.98     24.00
   22.2718    142.74    142.21    -18.60     24.00
   22.2819    142.04    142.23    -19.32     24.00
   22.2921    141.54    142.24    -19.83     24.00
   22.3023    143.41    142.23    -17.95     24.00
   22.3124    144.94    142.20    -16.39     24.00
   22.3226    143.77    142.15    -17.51     24.00
   22.3328    143.42    142.08    -17.79     24.00
   22.3429    144.73    142.00    -16.40     24.00
   22.3531    141.42    141.89    -19.60     24.00
   22.3633    143.03    141.77    -17.87     24.00
   22.3734    141.93    141.63    -18.83     24.00
   22.3836    142.57    141.47    -18.03     24.00
   22.3938    142.91    141.29    -17.51     24.00
   22.4039    141.92    141.09    -18.30     24.00
   22.4141    139.26    140.88    -20.75     24.00
   22.4243    141.13    140.64    -18.64     24.00
   22.4344    141.26    140.39    -18.26     24.00
   22.4446    140.31    140.12    -18.94     24.00
   22.4547    139.30    139.83    -19.66     24.00
   22.4649    139.27    139.52    -19.38     24.00
   22.4751    139.84    139.19    -18.48     24.00
   22.4852    137.84    138.85    -20.14     24.00
   22.4954    139.15    138.49    -18.47     24.00
   22.5056    135.20    138.11    -22.04     24.00
   22.5157    137.93    137.72    -18.92     24.00
   22.5259    136.16    137.31    -20.28     24.00
   22.5361    134.79    136.88    -21.22     24.00
   22.5462    136.05    136.44    -19.52     24.00
   22.5564    134.74    135.98    -20.37     24.00
   22.5666    132.77    135.50    -21.86     24.00
   22.5767    133.76    135.02    -20.39     24.00
   22.5869    131.72    134.51    -21.92     24.00
   22.5970    131.68    134.00    -21.45     24.00
   22.6072    132.39    133.46    -20.20     24.00
   22.6174    131.12    132.92    -20.93     24.00
   22.6275    129.66    132.36    -21.83     24.00
   22.6377    129.87    131.79    -21.05     24.00
   22.6479    128.73    131.21    -21.61     24.00
   22.6580    127.57    130.62    -22.18     24.00
   22.6682    128.91    130.01    -20.23     24.00
   22.6784    126.48    129.39    -22.04     24.00
   22.6885    126.63    128.77    -21.27     24.00
   22.6987    127.13    128.14    -20.14     24.00
   22.7089    125.57    127.49    -21.05     24.00
   22.7190    123.52    126.84    -22.45     24.00
   22.7292    124.68    126.18    -20.63     24.00
   22.7394    125.13    125.51    -19.51     24.00
   22.7495    121.61    124.84    -22.36     24.00
   22.7597    120.16    124.15    -23.12     24.00
   22.7698    121.61    123.47    -20.99     24.00
   22.7800    119.87    122.77    -22.03     24.00
   22.7902    120.18    122.07    -21.02     24.00
   22.8003    120.39    121.37    -20.11     24.00
   22.8105    117.81    120.66    -21.98     24.00
   22.8207    118.48    119.94    -20.59     24.00
   22.8308    117.16    119.23    -21.20     24.00
   22.8410    116.96    118.51    -20.68     24.00
   22.8512    116.01    117.79    -20.91     24.00
   22.8613    115.16    117.07    -21.04     24.00
   22.8715    114.38    116.35    -21.10     24.00
   22.8817    112.96    115.62    -21.79     24.00
   22.8918    113.23    114.90    -20.80     24.00
   22.9020    112.73    114.18    -20.58     24.00
   22.9121    112.71    113.46    -19.88     24.00
   22.9223    112.27    112.73    -19.59     24.00
   22.9325    110.71    112.01    -20.43     24.00
   22.9426    110.20    111.29    -20.22     24.00
   22.9528    109.63    110.57    -20.07     24.00
   22.9630    108.93    109.86    -20.06     24.00
   22.9731    108.46    109.15    -19.82     24.00
   22.9833    107.14    108.44    -20.43     24.00
   22.9935    106.04    107.73    -20.82     24.00
   23.0036    106.63    107.03    -19.53     24.00
   23.0138    105.95    106.34    -19.52     24.00
   23.0240    105.35    105.64    -19.42     24.00
   23.0341    107.97    104.96    -16.12     24.00
   23.0443    103.71    104.28    -19.70     24.00
   23.0545    103.73    103.60    -19.00     24.00
   23.0646    104.87    102.93    -17.19     24.00
   23.0748    102.99    102.27    -18.41     24.00
   23.0849    100.84    101.61    -19.90     24.00
   23.0951    103.18    100.96    -16.91     24.00
   23.1053    102.57    100.31    -16.87     24.00
   23.1154    100.21     99.68    -18.60     24.00
   23.1256     97.40     99.05    -20.78     24.00
   23.1358     99.96     98.43    -17.60     24.00
   23.1459     97.61     97.81    -19.33     24.00
   23.1561     98.94     97.21    -17.40     24.00
   23.1663     99.01     96.60    -16.72     24.00
   23.1764     97.48     96.02    -17.67     24.00
   23.1866     95.69     95.43    -18.87     24.00
   23.1968     96.34     94.85    -17.64     24.00
   23.2069     94.60     94.29    -18.82     24.00
   23.2171     94.98     93.73    -17.88     24.00
   23.2272     94.51     93.19    -17.81     24.00
   23.2374     94.60     92.64    -17.17     24.00
   23.2476     95.14     92.11    -16.10     24.00
   23.2577     92.69     91.59    -18.03     24.00
   23.2679     92.15     91.07    -18.05     24.00
   23.2781     92.90     90.56    -16.79     24.00
   23.2882     93.00     90.07    -16.20     24.00
   23.2984     92.18     89.58    -16.53     24.00
   23.3086     92.02     89.10    -16.21     24.00
   23.3187     89.23     88.63    -18.53     24.00
   23.3289     90.47     88.16    -16.82     24.00
   23.3391     88.04     87.71    -18.80     24.00
   23.3492     88.55     87.26    -17.84     24.00
   23.3594     88.25     86.82    -17.70     24.00
   23.3695     89.73     86.40    -15.80     24.00
   23.3797     88.05     85.97    -17.05     24.00
   23.3899     87.45     85.56    -17.24     24.00
   23.4000     87.41     85.16    -16.88     24.00
   23.4102     87.09     84.76    -16.80     24.00
   23.4204     86.72     84.37    -16.78     24.00
   23.4305     85.88     83.99    -17.24     24.00
   23.4407     86.46     83.62    -16.29     24.00
   23.4509     86.10     83.25    -16.28     24.00
   23.4610     85.35     82.90    -16.68     24.00
   23.4712     83.58     82.55    -18.10     24.00
   23.4814     82.83     82.21    -18.51     24.00
   23.4915     85.52     81.87    -15.48     24.00
   23.5017     83.60     81.54    -17.07     24.00
   23.5119     82.43     81.22    -17.92     24.00
   23.5220     83.34     80.91    -16.70     24.00
   23.5322     82.41     80.60    -17.32     24.00
   23.5423     82.92     80.30    -16.51     24.00
   23.5525     80.82     80.01    -18.32     24.00
   23.5627     81.70     79.72    -17.15     24.00
   23.5728     81.45     79.44    -17.12     24.00
   23.5830     80.99     79.17    -17.31     24.00
   23.5932     80.99     78.90    -17.04     24.00
   23.6033     80.92     78.63    -16.84     24.00
   23.6135     79.26     78.38    -18.25     24.00
   23.6237     78.59     78.12    -18.66     24.00
   23.6338     79.09     77.88    -17.92     24.00
   23.6440     79.85     77.64    -16.92     24.00
   23.6542     78.83     77.40    -17.70     24.00
   23.6643     78.85     77.17    -17.45     24.00
   23.6745     77.91     76.94    -18.16     24.00
   23.6846     78.03     76.72    -17.82     24.00
   23.6948     77.57     76.51    -18.07     24.00
   23.7050     77.45     76.29    -17.97     24.00
   23.7151     76.50     76.09    -18.72     24.00
   23.7253     76.42     75.88    -18.59     24.00
   23.7355     77.80     75.68    -17.01     24.00
   23.7456     76.36     75.49    -18.26     24.00
   23.7558     74.50     75.29    -19.92     24.00
   23.7660     76.34     75.10    -17.89     24.00
   23.7761     75.76     74.92    -18.29     24.00
   23.7863     75.55     74.74    -18.32     24.00
   23.7965     75.65     74.56    -18.04     24.00
   23.8066     74.52     74.39    -19.00     24.00
   23.8168     74.53     74.21    -18.81     24.00
   23.8270     75.10     74.04    -18.07     24.00
   23.8371     73.70     73.88    -19.31     24.00
   23.8473     73.77     73.72    -19.08     24.00
   23.8574     72.72     73.56    -19.97     24.00
   23.8676     73.35     73.40    -19.18     24.00
   23.8778     72.47     73.24    -19.90     24.00
   23.8879     74.26     73.09    -17.96     24.00
   23.8981     71.86     72.94    -20.21     24.00
   23.9083     72.09     72.79    -19.83     24.00
   23.9184     72.16     72.65    -19.62     24.00
   23.9286     71.99     72.50    -19.64     24.00
   23.9388     71.75     72.36    -19.74     24.00
   23.9489     70.46     72.22    -20.89     24.00
   23.9591     72.18     72.08    -19.03     24.00
   23.9693     73.05     71.94    -18.02     24.00
   23.9794     71.23     71.81    -19.71     24.00
   23.9896     70.92     71.68    -19.89     24.00
   23.9997     70.74     71.54    -19.93     24.00
   24.0099     70.65     71.41    -19.89     24.00
   24.0201     71.20     71.28    -19.21     24.00
   24.0302     70.42     71.16    -19.87     24.00
   24.0404     68.58     71.03    -21.58     24.00
   24.0506     69.92     70.91    -20.12     24.00
   24.0607     69.88     70.78    -20.03     24.00
   24.0709     68.74     70.66    -21.05     24.00
   24.0811     69.80     70.54    -19.87     24.00
   24.0912     68.67     70.42    -20.88     24.00
   24.1014     68.58     70.30    -20.85     24.00
   24.1116     69.23     70.18    -20.08     24.00
   24.1217     68.85     70.06    -20.34     24.00
   24.1319     68.99     69.94    -20.08     24.00
   24.1421     67.16     69.82    -21.79     24.00
   24.1522     67.46     69.71    -21.38     24.00
   24.1624     69.02     69.59    -19.70     24.00
   24.1725     67.18     69.48    -21.43     24.00
   24.1827     66.35     69.37    -22.15     24.00
   24.1929     66.65     69.25    -21.73     24.00
   24.2030     68.59     69.14    -19.68     24.00
   24.2132     66.35     69.03    -21.81     24.00
   24.2234     65.70     68.92    -22.35     24.00
   24.2335     68.26     68.81    -19.68     24.00
   24.2437     66.40     68.70    -21.43     24.00
   24.2539     65.13     68.59    -22.59     24.00
   24.2640     65.59     68.48    -22.02     24.00
   24.2742     66.03     68.37    -21.47     24.00
   24.2844     65.65     68.26    -21.74     24.00
   24.2945     67.08     68.15    -20.20     24.00
   24.3047     65.69     68.04    -21.48     24.00
   24.3148     65.49     67.94    -21.58     24.00
   24.3250     65.74     67.83    -21.22     24.00
   24.3352     64.43     67.72    -22.42     24.00
   24.3453     65.17     67.61    -21.57     24.00
   24.3555     64.88     67.51    -21.76     24.00
   24.3657     65.35     67.40    -21.18     24.00
   24.3758     64.23     67.30    -22.20     24.00
   24.3860     64.96     67.19    -21.36     24.00
   24.3962     64.33     67.08    -21.88     24.00
   24.4063     64.16     66.98    -21.95     24.00
   24.4165     65.13     66.87    -20.87     24.00
   24.4267     63.85     66.77    -22.05     24.00
   24.4368     63.93     66.66    -21.86     24.00
   24.4470     63.35     66.56    -22.34     24.00
   24.4572     64.21     66.45    -21.37     24.00
   24.4673     63.80     66.35    -21.68     24.00
   24.4775     63.93     66.24    -21.44     24.00
   24.4876     63.05     66.14    -22.22     24.00
   24.4978     64.36     66.04    -20.81     24.00
   24.5080     64.18     65.93    -20.88     24.00
   24.5181     63.66     65.83    -21.30     24.00
   24.5283     63.82     65.73    -21.04     24.00
   24.5385     62.74     65.62    -22.01     24.00
   24.5486     62.30     65.52    -22.35     24.00
   24.5588     63.06     65.42    -21.49     24.00
   24.5690     62.47     65.31    -21.97     24.00
   24.5791     62.53     65.21    -21.81     24.00
   24.5893     62.55     65.11    -21.69     24.00
   24.5995     61.71     65.00    -22.42     24.00
   24.6096     61.98     64.90    -22.05     24.00
   24.6198     62.97     64.80    -20.96     24.00
   24.6299     62.34     64.70    -21.49     24.00
   24.6401     62.39     64.59    -21.33     24.00
   24.6503     62.20     64.49    -21.42     24.00
   24.6604     61.47     64.39    -22.05     24.00
   24.6706     61.87     64.29    -21.55     24.00
   24.6808     61.38     64.18    -21.93     24.00
   24.6909     61.87     64.08    -21.34     24.00
   24.7011     60.88     63.98    -22.23     24.00
   24.7113     60.87     63.88    -22.14     24.00
   24.7214     60.22     63.78    -22.69     24.00
   24.7316     62.20     63.67    -20.60     24.00
   24.7418     60.62     63.57    -22.08     24.00
   24.7519     60.94     63.47    -21.66     24.00
   24.7621     60.52     63.37    -21.98     24.00
   24.7723     60.99     63.27    -21.41     24.00
   24.7824     61.45     63.17    -20.85     24.00
   24.7926     60.35     63.06    -21.84     24.00
   24.8027     59.49     62.96    -22.60     24.00
   24.8129     59.49     62.86    -22.50     24.00
   24.8231     60.65     62.76    -21.24     24.00
   24.8332     60.16     62.66    -21.63     24.00
   24.8434     59.91     62.56    -21.78     24.00
   24.8536     60.10     62.46    -21.49     24.00
   24.8637     60.70     62.36    -20.79     24.00
   24.8739     59.74     62.25    -21.64     24.00
   24.8841     59.05     62.15    -22.23     24.00
   24.8942     59.54     62.05    -21.64     24.00
   24.9044     58.66     61.95    -22.42     24.00
   24.9146     59.72     61.85    -21.26     24.00
   24.9247     57.51     61.75    -23.37     24.00
   24.9349     59.52     61.65    -21.26     24.00
   24.9450     58.93     61.55    -21.75     24.00
   24.9552     59.98     61.45    -20.60     24.00
   24.9654     59.54     61.35    -20.94     24.00
   24.9755     58.87     61.25    -21.51     24.00
   24.9857     59.72     61.15    -20.56     24.00
   24.9959     59.01     61.05    -21.17     24.00
   25.0060     58.15     60.95    -21.93     24.00
   25.0162     58.68     60.85    -21.30     24.00
   25.0264     59.11     60.75    -20.77     24.00
   25.0365     58.50     60.65    -21.28     24.00
   25.0467     58.16     60.55    -21.52     24.00
   25.0569     59.06     60.45    -20.52     24.00
   25.0670     58.50     60.35    -20.98     24.00
   25.0772     58.70     60.25    -20.68     24.00
   25.0874     58.61     60.15    -20.67     24.00
   25.0975     58.59     60.05    -20.59     24.00
   25.1077     58.20     59.95    -20.88     24.00
   25.1178     56.96     59.86    -22.03     24.00
   25.1280     59.27     59.76    -19.62     24.00
   25.1382     57.20     59.66    -21.59     24.00
   25.1483     58.03     59.56    -20.66     24.00
   25.1585     58.12     59.46    -20.47     24.00
   25.1687     57.54     59.36    -20.95     24.00
   25.1788     58.46     59.26    -19.93     24.00
   25.1890     57.91     59.16    -20.38     24.00
   25.1992     57.02     59.07    -21.18     24.00
   25.2093     57.09     58.97    -21.01     24.00
   25.2195     57.62     58.87    -20.38     24.00
   25.2297     58.95     58.77    -18.95     24.00
   25.2398     57.24     58.67    -20.56     24.00
   25.2500     56.74     58.58    -20.97     24.00
   25.2601     57.15     58.48    -20.46     24.00
   25.2703     57.64     58.38    -19.87     24.00
   25.2805     58.10     58.28    -19.31     24.00
   25.2906     57.46     58.19    -19.86     24.00
   25.3008     57.77     58.09    -19.45     24.00
   25.3110     56.09     57.99    -21.03     24.00
   25.3211     55.96     57.89    -21.06     24.00
   25.3313     57.73     57.80    -19.20     24.00
   25.3415     56.77     57.70    -20.06     24.00
   25.3516     56.52     57.60    -20.21     24.00
   25.3618     55.44     57.51    -21.20     24.00
   25.3720     57.20     57.41    -19.34     24.00
   25.3821     56.24     57.31    -20.20     24.00
   25.3923     56.81     57.22    -19.54     24.00
   25.4024     57.34     57.12    -18.91     24.00
   25.4126     56.29     57.02    -19.86     24.00
   25.4228     56.34     56.93    -19.72     24.00
   25.4329     56.23     56.83    -19.73     24.00
   25.4431     55.47     56.74    -20.40     24.00
   25.4533     56.58     56.64    -19.19     24.00
   25.4634     56.55     56.55    -19.13     24.00
   25.4736     55.46     56.45    -20.12     24.00
   25.4838     56.97     56.35    -18.51     24.00
   25.4939     55.87     56.26    -19.52     24.00
   25.5041     57.18     56.16    -18.11     24.00
   25.5143     55.69     56.07    -19.51     24.00
   25.5244     55.46     55.97    -19.64     24.00
   25.5346     55.40     55.88    -19.61     24.00
   25.5448     55.66     55.78    -19.25     24.00
   25.5549     55.01     55.69    -19.81     24.00
   25.5651     55.21     55.60    -19.52     24.00
   25.5752     55.54     55.50    -19.09     24.00
   25.5854     56.34     55.41    -18.20     24.00
   25.5956     55.21     55.31    -19.23     24.00
   25.6057     54.22     55.22    -20.13     24.00
   25.6159     55.20     55.13    -19.06     24.00
   25.6261     55.23     55.03    -18.93     24.00
   25.6362     54.38     54.94    -19.69     24.00
   25.6464     53.99     54.85    -19.99     24.00
   25.6566     55.09     54.75    -18.79     24.00
   25.6667     54.08     54.66    -19.71     24.00
   25.6769     54.12     54.57    -19.58     24.00
   25.6871     55.51     54.48    -18.10     24.00
   25.6972     55.20     54.39    -18.32     24.00
   25.7074     54.57     54.29    -18.85     24.00
   25.7175     54.61     54.20    -18.72     24.00
   25.7277     54.18     54.11    -19.06     24.00
   25.7379     53.75     54.02    -19.40     24.00
   25.7480     55.13     53.93    -17.93     24.00
   25.7582     54.90     53.84    -18.07     24.00
   25.7684     54.38     53.74    -18.49     24.00
   25.7785     54.59     53.65    -18.19     24.00
   25.7887     53.32     53.56    -19.37     24.00
   25.7989     54.30     53.47    -18.30     24.00
   25.8090     54.30     53.38    -18.21     24.00
   25.8192     54.85     53.29    -17.57     24.00
   25.8294     52.49     53.20    -19.84     24.00
   25.8395     53.59     53.11    -18.65     24.00
   25.8497     53.40     53.02    -18.75     24.00
   25.8599     53.33     52.93    -18.73     24.00
   25.8700     54.58     52.85    -17.40     24.00
   25.8802     54.23     52.76    -17.66     24.00
   25.8903     54.01     52.67    -17.79     24.00
   25.9005     53.60     52.58    -18.11     24.00
   25.9107     52.70     52.49    -18.92     24.00
   25.9208     53.31     52.41    -18.23     24.00
   25.9310     53.57     52.32    -17.88     24.00
   25.9412     53.27     52.23    -18.09     24.00
   25.9513     53.34     52.14    -17.93     24.00
   25.9615     54.04     52.06    -17.15     24.00
   25.9717     53.37     51.97    -17.73     24.00
   25.9818     52.73     51.88    -18.28     24.00
   25.9920     53.54     51.80    -17.39     24.00
   26.0022     52.31     51.71    -18.53     24.00
   26.0123     52.30     51.63    -18.46     24.00
   26.0225     52.98     51.54    -17.69     24.00
   26.0326     53.09     51.46    -17.50     24.00
   26.0428     53.69     51.37    -16.81     24.00
   26.0530     52.48     51.29    -17.94     24.00
   26.0631     52.74     51.21    -17.60     24.00
   26.0733     51.93     51.12    -18.32     24.00
   26.0835     52.84     51.04    -17.33     24.00
   26.0936     52.15     50.96    -17.94     24.00
   26.1038     52.93     50.88    -17.08     24.00
   26.1140     52.13     50.80    -17.80     24.00
   26.1241     53.09     50.71    -16.75     24.00
   26.1343     52.68     50.63    -17.08     24.00
   26.1445     52.29     50.55    -17.39     24.00
   26.1546     52.37     50.47    -17.23     24.00
   26.1648     51.60     50.39    -17.92     24.00
   26.1750     51.15     50.31    -18.29     24.00
   26.1851     51.75     50.24    -17.62     24.00
   26.1953     51.46     50.16    -17.83     24.00
   26.2054     52.42     50.08    -16.79     24.00
   26.2156     51.95     50.00    -17.18     24.00
   26.2258     51.81     49.93    -17.25     24.00
   26.2359     51.27     49.85    -17.71     24.00
   26.2461     51.59     49.78    -17.32     24.00
   26.2563     51.10     49.70    -17.73     24.00
   26.2664     52.18     49.63    -16.58     24.00
   26.2766     50.98     49.55    -17.70     24.00
   26.2868     51.69     49.48    -16.92     24.00
   26.2969     50.18     49.41    -18.36     24.00
   26.3071     52.88     49.34    -15.59     24.00
   26.3173     51.59     49.26    -16.80     24.00
   26.3274     51.28     49.19    -17.04     24.00
   26.3376     51.15     49.12    -17.10     24.00
   26.3477     51.55     49.06    -16.64     24.00
   26.3579     50.69     48.99    -17.43     24.00
   26.3681     51.21     48.92    -16.84     24.00
   26.3782     50.75     48.85    -17.23     24.00
   26.3884     51.11     48.79    -16.81     24.00
   26.3986     51.48     48.72    -16.37     24.00
   26.4087     51.39     48.66    -16.40     24.00
   26.4189     50.54     48.59    -17.18     24.00
   26.4291     51.20     48.53    -16.46     24.00
   26.4392     50.73     48.47    -16.87     24.00
   26.4494     50.70     48.41    -16.84     24.00
   26.4596     50.38     48.35    -17.10     24.00
   26.4697     50.37     48.29    -17.05     24.00
   26.4799     49.84     48.23    -17.52     24.00
   26.4901     51.07     48.17    -16.23     24.00
   26.5002     50.98     48.12    -16.27     24.00
   26.5104     51.58     48.06    -15.61     24.00
   26.5205     50.60     48.01    -16.54     24.00
   26.5307     49.31     47.96    -17.78     24.00
   26.5409     50.19     47.90    -16.84     24.00
   26.5510     50.66     47.85    -16.32     24.00
   26.5612     50.24     47.80    -16.69     24.00
   26.5714     50.20     47.76    -16.69     24.00
   26.5815     50.61     47.71    -16.23     24.00
   26.5917     50.68     47.66    -16.11     24.00
   26.6019     50.59     47.62    -16.16     24.00
   26.6120     50.81     47.57    -15.89     24.00
   26.6222     49.91     47.53    -16.75     24.00
   26.6324     50.63     47.49    -15.99     24.00
   26.6425     50.02     47.45    -16.56     24.00
   26.6527     49.49     47.41    -17.05     24.00
   26.6628     50.97     47.38    -15.54     24.00
   26.6730     50.70     47.34    -15.77     24.00
   26.6832     50.05     47.31    -16.39     24.00
   26.6933     50.14     47.28    -16.27     24.00
   26.7035     49.52     47.25    -16.86     24.00
   26.7137     49.83     47.22    -16.52     24.00
   26.7238     49.95     47.19    -16.37     24.00
   26.7340     50.00     47.16    -16.29     24.00
   26.7442     49.83     47.14    -16.44     24.00
   26.7543     50.33     47.12    -15.92     24.00
   26.7645     49.32     47.10    -16.91     24.00
   26.7747     50.05     47.08    -16.16     24.00
   26.7848     49.95     47.06    -16.24     24.00
   26.7950     50.32     47.04    -15.85     24.00
   26.8052     49.76     47.03    -16.40     24.00
   26.8153     50.45     47.02    -15.70     24.00
   26.8255     49.85     47.01    -16.29     24.00
   26.8356     49.03     47.00    -17.10     24.00
   26.8458     50.23     46.99    -15.89     24.00
   26.8560     50.78     46.99    -15.34     24.00
   26.8661     48.97     46.99    -17.15     24.00
   26.8763     48.89     46.99    -17.23     24.00
   26.8865     48.52     46.99    -17.60     24.00
   26.8966     49.71     46.99    -16.41     24.00
   26.9068     48.37     47.00    -17.76     24.00
   26.9170     49.93     47.01    -16.21     24.00
   26.9271     49.70     47.02    -16.45     24.00
   26.9373     49.24     47.03    -16.92     24.00
   26.9475     49.13     47.04    -17.04     24.00
   26.9576     48.40     47.06    -17.79     24.00
   26.9678     49.55     47.08    -16.66     24.00
   26.9779     50.11     47.10    -16.12     24.00
   26.9881     49.71     47.12    -16.54     24.00
   26.9983     49.44     47.15    -16.84     24.00
   27.0084     49.89     47.17    -16.41     24.00
   27.0186     48.33     47.20    -18.00     24.00
   27.0288     48.62     47.23    -17.74     24.00
   27.0389     49.21     47.27    -17.19     24.00
   27.0491     48.91     47.31    -17.53     24.00
   27.0593     49.11     47.34    -17.36     24.00
   27.0694     49.54     47.39    -16.98     24.00
   27.0796     49.23     47.43    -17.33     24.00
   27.0898     49.63     47.48    -16.98     24.00
   27.0999     49.16     47.52    -17.49     24.00
   27.1101     49.53     47.57    -17.17     24.00
   27.1202     49.35     47.63    -17.41     24.00
   27.1304     49.12     47.68    -17.69     24.00
   27.1406     49.07     47.74    -17.80     24.00
   27.1507     49.70     47.80    -17.23     24.00
   27.1609     49.78     47.87    -17.22     24.00
   27.1711     47.91     47.93    -19.15     24.00
   27.1812     49.47     48.00    -17.66     24.00
   27.1914     48.71     48.07    -18.49     24.00
   27.2016     49.71     48.14    -17.56     24.00
   27.2117     49.87     48.22    -17.48     24.00
   27.2219     48.24     48.29    -19.18     24.00
   27.2321     47.76     48.37    -19.74     24.00
   27.2422     50.48     48.45    -17.10     24.00
   27.2524     48.37     48.54    -19.30     24.00
   27.2626     49.15     48.63    -18.61     24.00
   27.2727     49.05     48.71    -18.79     24.00
   27.2829     49.04     48.80    -18.89     24.00
   27.2930     48.47     48.90    -19.56     24.00
   27.3032     48.62     48.99    -19.50     24.00
   27.3134     50.27     49.09    -17.95     24.00
   27.3235     50.13     49.19    -18.19     24.00
   27.3337     49.37     49.29    -19.05     24.00
   27.3439     49.49     49.40    -19.04     24.00
   27.3540     49.32     49.50    -19.31     24.00
   27.3642     49.99     49.61    -18.75     24.00
   27.3744     49.18     49.72    -19.67     24.00
   27.3845     50.47     49.84    -18.50     24.00
   27.3947     49.57     49.95    -19.51     24.00
   27.4049     51.04     50.07    -18.16     24.00
   27.4150     48.80     50.19    -20.52     24.00
   27.4252     48.94     50.31    -20.50     24.00
   27.4353     50.59     50.43    -18.97     24.00
   27.4455     49.91     50.55    -19.77     24.00
   27.4557     50.62     50.68    -19.19     24.00
   27.4658     50.03     50.80    -19.90     24.00
   27.4760     49.49     50.93    -20.57     24.00
   27.4862     50.41     51.06    -19.78     24.00
   27.4963     49.48     51.19    -20.84     24.00
   27.5065     50.00     51.33    -20.46     24.00
   27.5167     49.95     51.46    -20.64     24.00
   27.5268     50.21     51.60    -20.52     24.00
   27.5370     50.58     51.73    -20.28     24.00
   27.5472     50.95     51.87    -20.05     24.00
   27.5573     51.19     52.01    -19.95     24.00
   27.5675     50.36     52.15    -20.92     24.00
   27.5777     49.99     52.29    -21.43     24.00
   27.5878     51.04     52.43    -20.52     24.00
   27.5980     50.46     52.58    -21.25     24.00
   27.6081     50.57     52.72    -21.28     24.00
   27.6183     50.70     52.86    -21.29     24.00
   27.6285     52.03     53.01    -20.11     24.00
   27.6386     50.68     53.15    -21.60     24.00
   27.6488     50.96     53.30    -21.47     24.00
   27.6590     51.14     53.45    -21.44     24.00
   27.6691     51.09     53.59    -21.63     24.00
   27.6793     51.44     53.74    -21.43     24.00
   27.6895     50.79     53.89    -22.23     24.00
   27.6996     51.23     54.03    -21.93     24.00
   27.7098     51.16     54.18    -22.15     24.00
   27.7200     51.90     54.33    -21.56     24.00
   27.7301     52.26     54.47    -21.34     24.00
   27.7403     51.24     54.62    -22.51     24.00
   27.7504     52.98     54.76    -20.91     24.00
   27.7606     53.62     54.91    -20.42     24.00
   27.7708     51.35     55.05    -22.83     24.00
   27.7809     53.46     55.19    -20.86     24.00
   27.7911     51.51     55.34    -22.96     24.00
   27.8013     53.56     55.48    -21.05     24.00
   27.8114     53.26     55.62    -21.49     24.00
   27.8216     52.93     55.76    -21.96     24.00
   27.8318     53.66     55.90    -21.37     24.00
   27.8419     53.48     56.03    -21.68     24.00
   27.8521     54.86     56.17    -20.44     24.00
   27.8623     54.34     56.30    -21.09     24.00
   27.8724     54.57     56.44    -21.00     24.00
   27.8826     55.29     56.57    -20.41     24.00
   27.8928     54.57     56.70    -21.26     24.00
   27.9029     55.70     56.83    -20.26     24.00
   27.9131     54.76     56.95    -21.32     24.00
   27.9232     55.52     57.08    -20.69     24.00
   27.9334     55.29     57.20    -21.04     24.00
   27.9436     55.48     57.32    -20.97     24.00
   27.9537     55.96     57.43    -20.60     24.00
   27.9639     55.93     57.55    -20.75     24.00
   27.9741     56.00     57.66    -20.79     24.00
   27.9842     56.12     57.77    -20.78     24.00
   27.9944     56.97     57.88    -20.04     24.00
   28.0046     57.16     57.99    -19.96     24.00
   28.0147     58.19     58.09    -19.03     24.00
   28.0249     56.29     58.19    -21.03     24.00
   28.0351     57.27     58.29    -20.15     24.00
   28.0452     57.20     58.38    -20.31     24.00
   28.0554     57.76     58.47    -19.84     24.00
   28.0655     58.46     58.56    -19.23     24.00
   28.0757     58.81     58.64    -18.96     24.00
   28.0859     59.70     58.73    -18.16     24.00
   28.0960     58.09     58.80    -19.84     24.00
   28.1062     57.83     58.88    -20.18     24.00
   28.1164     59.67     58.95    -18.41     24.00
   28.1265     58.27     59.02    -19.88     24.00
   28.1367     60.44     59.09    -17.78     24.00
   28.1469     59.54     59.15    -18.74     24.00
   28.1570     59.32     59.20    -19.01     24.00
   28.1672     59.76     59.26    -18.63     24.00
   28.1774     60.30     59.31    -18.14     24.00
   28.1875     60.85     59.36    -17.64     24.00
   28.1977     61.65     59.40    -16.88     24.00
   28.2079     60.95     59.44    -17.62     24.00
   28.2180     60.84     59.48    -17.77     24.00
   28.2282     60.48     59.51    -18.16     24.00
   28.2383     61.62     59.54    -17.05     24.00
   28.2485     62.46     59.56    -16.23     24.00
   28.2587     61.16     59.58    -17.55     24.00
   28.2688     61.20     59.60    -17.53     24.00
   28.2790     60.77     59.61    -17.97     24.00
   28.2892     60.71     59.62    -18.04     24.00
   28.2993     61.90     59.62    -16.85     24.00
   28.3095     62.08     59.62    -16.67     24.00
   28.3197     62.21     59.62    -16.54     24.00
   28.3298     61.49     59.61    -17.25     24.00
   28.3400     61.67     59.60    -17.06     24.00
   28.3502     61.13     59.59    -17.59     24.00
   28.3603     61.52     59.57    -17.18     24.00
   28.3705     61.16     59.55    -17.52     24.00
   28.3806     62.90     59.52    -15.75     24.00
   28.3908     60.76     59.49    -17.86     24.00
   28.4010     62.01     59.46    -16.58     24.00
   28.4111     60.88     59.42    -17.67     24.00
   28.4213     61.29     59.38    -17.22     24.00
   28.4315     61.34     59.33    -17.12     24.00
   28.4416     62.62     59.28    -15.79     24.00
   28.4518     61.04     59.23    -17.32     24.00
   28.4620     60.77     59.17    -17.53     24.00
   28.4721     62.52     59.11    -15.72     24.00
   28.4823     60.35     59.04    -17.82     24.00
   28.4925     60.68     58.98    -17.43     24.00
   28.5026     60.34     58.91    -17.70     24.00
   28.5128     60.51     58.83    -17.45     24.00
   28.5230     60.07     58.75    -17.81     24.00
   28.5331     61.28     58.67    -16.52     24.00
   28.5433     60.54     58.58    -17.17     24.00
   28.5534     59.80     58.50    -17.83     24.00
   28.5636     59.36     58.41    -18.18     24.00
   28.5738     59.86     58.31    -17.58     24.00
   28.5839     59.79     58.21    -17.55     24.00
   28.5941     59.08     58.11    -18.16     24.00
   28.6043     59.30     58.01    -17.84     24.00
   28.6144     58.82     57.90    -18.21     24.00
   28.6246     59.23     57.79    -17.69     24.00
   28.6348     59.52     57.68    -17.29     24.00
   28.6449     58.55     57.56    -18.14     24.00
   28.6551     58.75     57.45    -17.83     24.00
   28.6653     59.32     57.33    -17.14     24.00
   28.6754     58.57     57.20    -17.76     24.00
   28.6856     58.75     57.08    -17.46     24.00
   28.6957     58.35     56.95    -17.73     24.00
   28.7059     59.79     56.82    -16.16     24.00
   28.7161     57.20     56.69    -18.62     24.00
   28.7262     57.40     56.56    -18.29     24.00
   28.7364     57.32     56.42    -18.23     24.00
   28.7466     56.31     56.28    -19.10     24.00
   28.7567     57.02     56.14    -18.25     24.00
   28.7669     55.77     56.00    -19.36     24.00
   28.7771     56.50     55.86    -18.49     24.00
   28.7872     56.12     55.72    -18.73     24.00
   28.7974     55.38     55.57    -19.32     24.00
   28.8076     55.81     55.42    -18.74     24.00
   28.8177     56.48     55.27    -17.92     24.00
   28.8279     54.49     55.12    -19.76     24.00
   28.8381     55.16     54.97    -18.94     24.00
   28.8482     54.21     54.82    -19.74     24.00
   28.8584     53.77     54.66    -20.02     24.00
   28.8685     53.64     54.51    -20.00     24.00
   28.8787     54.70     54.36    -18.79     24.00
   28.8889     54.25     54.20    -19.08     24.00
   28.8990     53.48     54.04    -19.69     24.00
   28.9092     53.55     53.89    -19.47     24.00
   28.9194     53.27     53.73    -19.59     24.00
   28.9295     53.15     53.57    -19.55     24.00
   28.9397     53.52     53.41    -19.02     24.00
   28.9499     52.44     53.25    -19.94     24.00
   28.9600     51.96     53.09    -20.26     24.00
   28.9702     52.37     52.93    -19.69     24.00
   28.9804     51.34     52.77    -20.56     24.00
   28.9905     52.40     52.61    -19.34     24.00
   29.0007     52.35     52.45    -19.23     24.00
   29.0108     51.62     52.29    -19.80     24.00
   29.0210     51.50     52.14    -19.77     24.00
   29.0312     51.24     51.98    -19.87     24.00
   29.0413     50.45     51.82    -20.50     24.00
   29.0515     50.91     51.66    -19.88     24.00
   29.0617     50.83     51.50    -19.80     24.00
   29.0718     50.17     51.34    -20.30     24.00
   29.0820     50.10     51.19    -20.22     24.00
   29.0922     48.89     51.03    -21.27     24.00
   29.1023     50.16     50.88    -19.85     24.00
   29.1125     50.57     50.72    -19.28     24.00
   29.1227     49.01     50.56    -20.68     24.00
   29.1328     49.40     50.41    -20.14     24.00
   29.1430     49.73     50.26    -19.66     24.00
   29.1531     48.40     50.11    -20.84     24.00
   29.1633     47.33     49.96    -21.76     24.00
   29.1735     49.66     49.81    -19.28     24.00
   29.1836     49.17     49.66    -19.62     24.00
   29.1938     48.80     49.51    -19.84     24.00
   29.2040     48.65     49.36    -19.84     24.00
   29.2141     48.20     49.22    -20.15     24.00
   29.2243     48.32     49.08    -19.89     24.00
   29.2345     47.85     48.93    -20.21     24.00
   29.2446     47.55     48.79    -20.37     24.00
   29.2548     48.10     48.65    -19.68     24.00
   29.2650     48.46     48.51    -19.18     24.00
   29.2751     47.88     48.37    -19.62     24.00
   29.2853     47.19     48.24    -20.18     24.00
   29.2955     48.17     48.10    -19.06     24.00
   29.3056     46.77     47.97    -20.33     24.00
   29.3158     46.48     47.83    -20.48     24.00
   29.3259     45.91     47.70    -20.92     24.00
   29.3361     46.55     47.57    -20.15     24.00
   29.3463     46.56     47.44    -20.01     24.00
   29.3564     46.20     47.32    -20.25     24.00
   29.3666     46.60     47.19    -19.72     24.00
   29.3768     45.80     47.07    -20.40     24.00
   29.3869     46.57     46.94    -19.50     24.00
   29.3971     46.96     46.82    -18.99     24.00
   29.4073     46.66     46.70    -19.17     24.00
   29.4174     45.73     46.58    -19.98     24.00
   29.4276     47.16     46.47    -18.44     24.00
   29.4378     45.65     46.35    -19.83     24.00
   29.4479     44.73     46.24    -20.64     24.00
   29.4581     46.48     46.12    -18.77     24.00
   29.4682     44.65     46.01    -20.49     24.00
   29.4784     44.13     45.90    -20.90     24.00
   29.4886     44.62     45.79    -20.30     24.00
   29.4987     44.68     45.68    -20.13     24.00
   29.5089     45.43     45.58    -19.28     24.00
   29.5191     44.37     45.47    -20.23     24.00
   29.5292     44.84     45.37    -19.66     24.00
   29.5394     44.52     45.27    -19.88     24.00
   29.5496     44.69     45.17    -19.61     24.00
   29.5597     44.76     45.07    -19.44     24.00
   29.5699     44.36     44.97    -19.74     24.00
   29.5801     43.24     44.87    -20.76     24.00
   29.5902     43.71     44.78    -20.20     24.00
   29.6004     44.16     44.68    -19.65     24.00
   29.6106     44.22     44.59    -19.50     24.00
   29.6207     43.13     44.49    -20.49     24.00
   29.6309     44.80     44.40    -18.73     24.00
   29.6410     44.96     44.31    -18.48     24.00
   29.6512     44.30     44.22    -19.05     24.00
   29.6614     43.80     44.13    -19.46     24.00
   29.6715     43.56     44.05    -19.62     24.00
   29.6817     44.05     43.96    -19.04     24.00
   29.6919     44.39     43.88    -18.62     24.00
   29.7020     43.58     43.79    -19.34     24.00
   29.7122     42.86     43.71    -19.98     24.00
   29.7224     42.67     43.63    -20.09     24.00
   29.7325     44.68     43.54    -17.99     24.00
   29.7427     43.24     43.46    -19.35     24.00
   29.7529     42.94     43.38    -19.57     24.00
   29.7630     43.18     43.30    -19.25     24.00
   29.7732     43.14     43.23    -19.22     24.00
   29.7833     42.95     43.15    -19.33     24.00
   29.7935     43.44     43.07    -18.76     24.00
   29.8037     42.66     42.99    -19.46     24.00
   29.8138     43.90     42.92    -18.15     24.00
   29.8240     42.76     42.84    -19.21     24.00
   29.8342     42.73     42.77    -19.17     24.00
   29.8443     42.70     42.69    -19.12     24.00
   29.8545     43.02     42.62    -18.73     24.00
   29.8647     42.84     42.55    -18.84     24.00
   29.8748     43.65     42.47    -17.95     24.00
   29.8850     42.65     42.40    -18.88     24.00
   29.8952     41.59     42.33    -19.87     24.00
   29.9053     42.67     42.26    -18.72     24.00
   29.9155     41.81     42.19    -19.51     24.00
   29.9257     41.45     42.11    -19.79     24.00
   29.9358     42.60     42.04    -18.57     24.00
   29.9460     42.13     41.97    -18.97     24.00
   29.9561     42.13     41.90    -18.90     24.00
   29.9663     41.76     41.83    -19.20     24.00
   29.9765     41.45     41.76    -19.44     24.00
   29.9866     41.96     41.69    -18.86     24.00
   29.9968     41.60     41.62    -19.15     24.00
   30.0070     41.46     41.55    -19.22     24.00
   30.0171     40.73     41.49    -19.89     24.00
   30.0273     41.56     41.42    -18.99     24.00
   30.0375     41.75     41.35    -18.73     24.00
   30.0476     41.93     41.28    -18.48     24.00
   30.0578     41.19     41.21    -19.15     24.00
   30.0680     40.28     41.14    -19.99     24.00
   30.0781     40.74     41.07    -19.46     24.00
   30.0883     40.58     41.00    -19.55     24.00
   30.0984     40.91     40.93    -19.15     24.00
   30.1086     40.05     40.86    -19.94     24.00
   30.1188     40.80     40.79    -19.12     24.00
   30.1289     40.68     40.73    -19.18     24.00
   30.1391     40.99     40.66    -18.80     24.00
   30.1493     39.96     40.59    -19.76     24.00
   30.1594     39.68     40.52    -19.97     24.00
   30.1696     40.23     40.45    -19.35     24.00
   30.1798     39.91     40.38    -19.60     24.00
   30.1899     40.28     40.31    -19.16     24.00
   30.2001     40.13     40.24    -19.24     24.00
   30.2103     40.72     40.17    -18.58     24.00
   30.2204     39.89     40.09    -19.33     24.00
   30.2306     40.64     40.02    -18.51     24.00
   30.2408     39.86     39.95    -19.22     24.00
   30.2509     39.07     39.88    -19.94     24.00
   30.2611     38.71     39.81    -20.23     24.00
   30.2712     39.59     39.74    -19.28     24.00
   30.2814     40.65     39.67    -18.15     24.00
   30.2916     38.58     39.59    -20.14     24.00
   30.3017     38.12     39.52    -20.53     24.00
   30.3119     39.10     39.45    -19.48     24.00
   30.3221     38.93     39.38    -19.58     24.00
   30.3322     38.82     39.30    -19.61     24.00
   30.3424     38.73     39.23    -19.63     24.00
   30.3526     38.71     39.16    -19.58     24.00
   30.3627     38.54     39.08    -19.67     24.00
   30.3729     38.32     39.01    -19.82     24.00
   30.3831     38.34     38.93    -19.72     24.00
   30.3932     38.60     38.86    -19.39     24.00
   30.4034     38.50     38.78    -19.41     24.00
   30.4135     38.18     38.71    -19.66     24.00
   30.4237     37.33     38.63    -20.43     24.00
   30.4339     38.00     38.56    -19.69     24.00
   30.4440     37.71     38.48    -19.90     24.00
   30.4542     37.87     38.41    -19.67     24.00
   30.4644     37.66     38.33    -19.80     24.00
   30.4745     37.67     38.26    -19.72     24.00
   30.4847     37.21     38.18    -20.10     24.00
   30.4949     37.91     38.10    -19.32     24.00
   30.5050     36.40     38.03    -20.76     24.00
   30.5152     38.08     37.95    -19.00     24.00
   30.5254     37.68     37.87    -19.32     24.00
   30.5355     36.51     37.80    -20.42     24.00
   30.5457     36.80     37.72    -20.05     24.00
   30.5559     38.02     37.64    -18.75     24.00
   30.5660     37.25     37.56    -19.44     24.00
   30.5762     37.50     37.49    -19.12     24.00
   30.5863     37.04     37.41    -19.50     24.00
   30.5965     35.73     37.33    -20.73     24.00
   30.6067     36.79     37.25    -19.59     24.00
   30.6168     36.57     37.17    -19.73     24.00
   30.6270     36.29     37.10    -19.94     24.00
   30.6372     36.35     37.02    -19.80     24.00
   30.6473     37.05     36.94    -19.02     24.00
   30.6575     36.71     36.86    -19.28     24.00
   30.6677     36.14     36.78    -19.77     24.00
   30.6778     36.99     36.71    -18.85     24.00
   30.6880     36.75     36.63    -19.01     24.00
   30.6982     36.49     36.55    -19.19     24.00
   30.7083     36.56     36.47    -19.04     24.00
   30.7185     35.79     36.40    -19.74     24.00
   30.7286     35.85     36.32    -19.60     24.00
   30.7388     36.53     36.24    -18.84     24.00
   30.7490     35.72     36.16    -19.57     24.00
   30.7591     36.21     36.09    -19.01     24.00
   30.7693     35.89     36.01    -19.25     24.00
   30.7795     36.01     35.93    -19.05     24.00
   30.7896     35.76     35.86    -19.23     24.00
   30.7998     35.49     35.78    -19.42     24.00
   30.8100     36.27     35.70    -18.56     24.00
   30.8201     35.18     35.63    -19.58     24.00
   30.8303     35.35     35.55    -19.33     24.00
   30.8405     35.89     35.48    -18.72     24.00
   30.8506     34.87     35.40    -19.66     24.00
   30.8608     35.16     35.33    -19.30     24.00
   30.8710     36.27     35.25    -18.11     24.00
   30.8811     35.45     35.18    -18.86     24.00
   30.8913     35.77     35.10    -18.46     24.00
   30.9014     35.13     35.03    -19.03     24.00
   30.9116     34.90     34.96    -19.19     24.00
   30.9218     35.69     34.88    -18.32     24.00
   30.9319     34.60     34.81    -19.34     24.00
   30.9421     34.90     34.74    -18.97     24.00
   30.9523     34.87     34.67    -18.93     24.00
   30.9624     34.84     34.60    -18.89     24.00
   30.9726     34.26     34.53    -19.40     24.00
   30.9828     34.53     34.46    -19.06     24.00
   30.9929     34.71     34.39    -18.81     24.00
   31.0031     34.79     34.32    -18.66     24.00
   31.0133     35.65     34.25    -17.73     24.00
   31.0234     34.79     34.18    -18.52     24.00
   31.0336     34.27     34.12    -18.98     24.00
   31.0437     35.32     34.05    -17.86     24.00
   31.0539     34.53     33.98    -18.58     24.00
   31.0641     34.49     33.92    -18.56     24.00
   31.0742     35.40     33.85    -17.58     24.00
   31.0844     34.97     33.79    -17.95     24.00
   31.0946     34.76     33.72    -18.09     24.00
   31.1047     35.28     33.66    -17.51     24.00
   31.1149     33.79     33.60    -18.94     24.00
   31.1251     34.15     33.54    -18.52     24.00
   31.1352     33.72     33.48    -18.89     24.00
   31.1454     34.04     33.41    -18.50     24.00
   31.1556     34.38     33.35    -18.10     24.00
   31.1657     34.21     33.30    -18.22     24.00
   31.1759     33.87     33.24    -18.50     24.00
   31.1860     33.98     33.18    -18.33     24.00
   31.1962     35.12     33.12    -17.13     24.00
   31.2064     34.85     33.07    -17.35     24.00
   31.2165     34.68     33.01    -17.46     24.00
   31.2267     33.96     32.96    -18.13     24.00
   31.2369     34.04     32.90    -17.99     24.00
   31.2470     34.60     32.85    -17.38     24.00
   31.2572     35.04     32.80    -16.89     24.00
   31.2674     33.05     32.75    -18.83     24.00
   31.2775     34.08     32.70    -17.75     24.00
   31.2877     34.55     32.65    -17.23     24.00
   31.2979     34.10     32.60    -17.63     24.00
   31.3080     33.27     32.55    -18.41     24.00
   31.3182     33.92     32.50    -17.71     24.00
   31.3284     33.26     32.46    -18.33     24.00
   31.3385     33.96     32.41    -17.58     24.00
   31.3487     33.40     32.37    -18.10     24.00
   31.3588     33.57     32.32    -17.88     24.00
   31.3690     33.22     32.28    -18.19     24.00
   31.3792     33.29     32.24    -18.08     24.00
   31.3893     33.15     32.20    -18.18     24.00
   31.3995     33.18     32.16    -18.11     24.00
   31.4097     33.23     32.12    -18.02     24.00
   31.4198     33.23     32.08    -17.98     24.00
   31.4300     33.65     32.04    -17.52     24.00
   31.4402     32.95     32.01    -18.19     24.00
   31.4503     32.68     31.97    -18.42     24.00
   31.4605     33.38     31.94    -17.69     24.00
   31.4707     32.63     31.90    -18.40     24.00
   31.4808     33.62     31.87    -17.38     24.00
   31.4910     33.12     31.84    -17.85     24.00
   31.5011     34.10     31.81    -16.84     24.00
   31.5113     33.60     31.78    -17.31     24.00
   31.5215     33.09     31.75    -17.79     24.00
   31.5316     33.72     31.72    -17.13     24.00
   31.5418     33.35     31.69    -17.47     24.00
   31.5520     32.85     31.67    -17.95     24.00
   31.5621     32.95     31.64    -17.82     24.00
   31.5723     32.82     31.62    -17.93     24.00
   31.5825     32.28     31.59    -18.44     24.00
   31.5926     33.27     31.57    -17.43     24.00
   31.6028     33.05     31.55    -17.63     24.00
   31.6130     33.62     31.53    -17.04     24.00
   31.6231     32.78     31.51    -17.86     24.00
   31.6333     33.78     31.49    -16.84     24.00
   31.6435     33.49     31.47    -17.11     24.00
   31.6536     33.36     31.45    -17.22     24.00
   31.6638     33.20     31.44    -17.37     24.00
   31.6739     33.19     31.42    -17.36     24.00
   31.6841     32.68     31.41    -17.86     24.00
   31.6943     33.06     31.39    -17.46     24.00
   31.7044     32.82     31.38    -17.69     24.00
   31.7146     33.33     31.37    -17.17     24.00
   31.7248     32.32     31.36    -18.17     24.00
   31.7349     33.02     31.35    -17.46     24.00
   31.7451     32.88     31.34    -17.59     24.00
   31.7553     33.24     31.33    -17.22     24.00
   31.7654     32.61     31.32    -17.84     24.00
   31.7756     32.68     31.31    -17.76     24.00
   31.7858     32.49     31.31    -17.95     24.00
   31.7959     32.28     31.30    -18.15     24.00
   31.8061     32.34     31.29    -18.08     24.00
   31.8162     32.63     31.29    -17.79     24.00
   31.8264     33.05     31.29    -17.37     24.00
   31.8366     33.39     31.29    -17.03     24.00
   31.8467     32.99     31.28    -17.42     24.00
   31.8569     32.41     31.28    -18.00     24.00
   31.8671     32.56     31.28    -17.85     24.00
   31.8772     32.53     31.28    -17.88     24.00
   31.8874     32.76     31.28    -17.65     24.00
   31.8976     32.23     31.29    -18.19     24.00
   31.9077     33.11     31.29    -17.31     24.00
   31.9179     32.49     31.29    -17.93     24.00
   31.9281     33.23     31.29    -17.19     24.00
   31.9382     32.57     31.30    -17.86     24.00
   31.9484     32.29     31.30    -18.14     24.00
   31.9586     33.02     31.31    -17.42     24.00
   31.9687     32.28     31.32    -18.17     24.00
   31.9789     32.71     31.32    -17.74     24.00
   31.9890     32.69     31.33    -17.77     24.00
   31.9992     32.51     31.34    -17.96     24.00
   32.0094     32.40     31.35    -18.08     24.00
   32.0195     32.98     31.36    -17.51     24.00
   32.0297     32.27     31.37    -18.23     24.00
   32.0399     32.02     31.38    -18.49     24.00
   32.0500     32.61     31.39    -17.91     24.00
   32.0602     31.93     31.40    -18.60     24.00
   32.0704     32.01     31.41    -18.53     24.00
   32.0805     32.79     31.42    -17.76     24.00
   32.0907     32.10     31.44    -18.47     24.00
   32.1009     32.45     31.45    -18.13     24.00
   32.1110     32.31     31.46    -18.28     24.00
   32.1212     32.50     31.48    -18.11     24.00
   32.1313     33.00     31.49    -17.62     24.00
   32.1415     32.05     31.50    -18.58     24.00
   32.1517     32.01     31.52    -18.64     24.00
   32.1618     31.97     31.53    -18.69     24.00
   32.1720     32.16     31.55    -18.52     24.00
   32.1822     32.50     31.57    -18.20     24.00
   32.1923     32.43     31.58    -18.28     24.00
   32.2025     32.36     31.60    -18.37     24.00
   32.2127     32.08     31.62    -18.67     24.00
   32.2228     32.51     31.63    -18.25     24.00
   32.2330     32.60     31.65    -18.18     24.00
   32.2432     32.21     31.67    -18.59     24.00
   32.2533     31.71     31.69    -19.11     24.00
   32.2635     32.03     31.70    -18.80     24.00
   32.2737     32.40     31.72    -18.45     24.00
   32.2838     32.86     31.74    -18.01     24.00
   32.2940     32.61     31.76    -18.28     24.00
   32.3041     32.27     31.78    -18.64     24.00
   32.3143     31.07     31.79    -19.85     24.00
   32.3245     32.89     31.81    -18.05     24.00
   32.3346     32.57     31.83    -18.39     24.00
   32.3448     33.10     31.85    -17.88     24.00
   32.3550     32.73     31.87    -18.27     24.00
   32.3651     31.87     31.89    -19.15     24.00
   32.3753     31.76     31.91    -19.28     24.00
   32.3855     32.87     31.93    -18.19     24.00
   32.3956     32.09     31.95    -18.99     24.00
   32.4058     33.08     31.96    -18.01     24.00
   32.4160     32.34     31.98    -18.77     24.00
   32.4261     32.29     32.00    -18.84     24.00
   32.4363     33.32     32.02    -17.83     24.00
   32.4464     32.05     32.04    -19.12     24.00
   32.4566     31.39     32.06    -19.80     24.00
   32.4668     32.02     32.07    -19.18     24.00
   32.4769     31.51     32.09    -19.71     24.00
   32.4871     31.95     32.11    -19.29     24.00
   32.4973     31.41     32.13    -19.85     24.00
   32.5074     31.76     32.15    -19.52     24.00
   32.5176     31.76     32.16    -19.53     24.00
   32.5278     32.29     32.18    -19.02     24.00
   32.5379     32.18     32.20    -19.15     24.00
   32.5481     32.15     32.21    -19.19     24.00
   32.5583     31.72     32.23    -19.64     24.00
   32.5684     31.70     32.25    -19.68     24.00
   32.5786     31.51     32.26    -19.88     24.00
   32.5888     32.37     32.28    -19.04     24.00
   32.5989     31.81     32.29    -19.61     24.00
   32.6091     31.95     32.31    -19.49     24.00
   32.6192     31.93     32.32    -19.52     24.00
   32.6294     31.80     32.34    -19.67     24.00
   32.6396     31.95     32.35    -19.53     24.00
   32.6497     32.22     32.36    -19.27     24.00
   32.6599     31.82     32.38    -19.69     24.00
   32.6701     31.84     32.39    -19.68     24.00
   32.6802     32.44     32.40    -19.09     24.00
   32.6904     32.16     32.41    -19.38     24.00
   32.7006     31.54     32.42    -20.01     24.00
   32.7107     32.07     32.44    -19.50     24.00
   32.7209     31.03     32.45    -20.55     24.00
   32.7311     31.28     32.46    -20.31     24.00
   32.7412     31.79     32.47    -19.81     24.00
   32.7514     32.05     32.47    -19.55     24.00
   32.7615     31.10     32.48    -20.51     24.00
   32.7717     32.20     32.49    -19.42     24.00
   32.7819     31.54     32.50    -20.09     24.00
   32.7920     31.67     32.51    -19.97     24.00
   32.8022     32.12     32.51    -19.52     24.00
   32.8124     31.85     32.52    -19.80     24.00
   32.8225     31.93     32.52    -19.72     24.00
   32.8327     31.54     32.53    -20.12     24.00
   32.8429     31.66     32.53    -20.00     24.00
   32.8530     31.48     32.54    -20.19     24.00
   32.8632     31.64     32.54    -20.03     24.00
   32.8734     31.77     32.54    -19.90     24.00
   32.8835     32.84     32.54    -18.83     24.00
   32.8937     31.64     32.54    -20.03     24.00
   32.9039     32.10     32.54    -19.57     24.00
   32.9140     31.34     32.54    -20.33     24.00
   32.9242     32.24     32.54    -19.43     24.00
   32.9343     32.16     32.54    -19.51     24.00
   32.9445     31.34     32.54    -20.33     24.00
   32.9547     31.86     32.54    -19.81     24.00
   32.9648     32.08     32.53    -19.58     24.00
   32.9750     30.91     32.53    -20.75     24.00
   32.9852     32.76     32.53    -18.90     24.00
   32.9953     32.30     32.52    -19.35     24.00
   33.0055     32.48     32.52    -19.17     24.00
   33.0157     32.23     32.51    -19.41     24.00
   33.0258     31.65     32.50    -19.98     24.00
   33.0360     32.38     32.49    -19.24     24.00
   33.0462     31.94     32.48    -19.67     24.00
   33.0563     32.46     32.48    -19.15     24.00
   33.0665     32.98     32.47    -18.62     24.00
   33.0766     32.37     32.46    -19.22     24.00
   33.0868     31.91     32.44    -19.66     24.00
   33.0970     32.51     32.43    -19.05     24.00
   33.1071     33.12     32.42    -18.43     24.00
   33.1173     32.30     32.41    -19.24     24.00
   33.1275     32.48     32.39    -19.04     24.00
   33.1376     32.57     32.38    -18.94     24.00
   33.1478     31.43     32.36    -20.06     24.00
   33.1580     32.23     32.35    -19.25     24.00
   33.1681     32.20     32.33    -19.26     24.00
   33.1783     31.49     32.31    -19.95     24.00
   33.1885     31.76     32.29    -19.66     24.00
   33.1986     32.22     32.27    -19.18     24.00
   33.2088     32.14     32.26    -19.25     24.00
   33.2189     32.08     32.24    -19.29     24.00
   33.2291     31.98     32.21    -19.36     24.00
   33.2393     32.15     32.19    -19.17     24.00
   33.2494     31.76     32.17    -19.54     24.00
   33.2596     32.01     32.15    -19.27     24.00
   33.2698     32.44     32.12    -18.81     24.00
   33.2799     31.54     32.10    -19.69     24.00
   33.2901     32.85     32.08    -18.36     24.00
   33.3003     32.74     32.05    -18.44     24.00
   33.3104     33.19     32.02    -17.96     24.00
   33.3206     31.96     32.00    -19.17     24.00
   33.3308     32.22     31.97    -18.88     24.00
   33.3409     31.67     31.94    -19.40     24.00
   33.3511     32.62     31.91    -18.42     24.00
   33.3613     31.94     31.88    -19.07     24.00
   33.3714     31.66     31.86    -19.33     24.00
   33.3816     32.47     31.82    -18.48     24.00
   33.3917     32.34     31.79    -18.58     24.00
   33.4019     32.41     31.76    -18.48     24.00
   33.4121     32.05     31.73    -18.81     24.00
   33.4222     30.72     31.70    -20.11     24.00
   33.4324     31.88     31.66    -18.91     24.00
   33.4426     32.30     31.63    -18.46     24.00
   33.4527     31.71     31.60    -19.02     24.00
   33.4629     31.57     31.56    -19.12     24.00
   33.4731     31.44     31.53    -19.22     24.00
   33.4832     31.79     31.49    -18.83     24.00
   33.4934     31.27     31.45    -19.31     24.00
   33.5036     31.52     31.42    -19.03     24.00
   33.5137     31.42     31.38    -19.09     24.00
   33.5239     31.59     31.34    -18.88     24.00
   33.5340     32.10     31.30    -18.33     24.00
   33.5442     31.30     31.26    -19.09     24.00
   33.5544     31.15     31.22    -19.20     24.00
   33.5645     31.46     31.18    -18.85     24.00
   33.5747     31.99     31.14    -18.28     24.00
   33.5849     31.01     31.10    -19.22     24.00
   33.5950     31.42     31.06    -18.77     24.00
   33.6052     30.24     31.02    -19.91     24.00
   33.6154     30.57     30.98    -19.54     24.00
   33.6255     31.57     30.93    -18.49     24.00
   33.6357     30.84     30.89    -19.18     24.00
   33.6459     30.95     30.85    -19.03     24.00
   33.6560     31.20     30.80    -18.73     24.00
   33.6662     31.09     30.76    -18.80     24.00
   33.6764     31.09     30.72    -18.76     24.00
   33.6865     30.08     30.67    -19.72     24.00
   33.6967     30.89     30.63    -18.87     24.00
   33.7068     30.02     30.58    -19.69     24.00
   33.7170     30.33     30.53    -19.33     24.00
   33.7272     29.96     30.49    -19.66     24.00
   33.7373     30.01     30.44    -19.56     24.00
   33.7475     30.10     30.40    -19.43     24.00
   33.7577     30.82     30.35    -18.66     24.00
   33.7678     28.96     30.30    -20.47     24.00
   33.7780     29.86     30.25    -19.52     24.00
   33.7882     29.95     30.21    -19.39     24.00
   33.7983     29.18     30.16    -20.11     24.00
   33.8085     29.36     30.11    -19.88     24.00
   33.8187     28.91     30.06    -20.28     24.00
   33.8288     28.98     30.01    -20.16     24.00
   33.8390     29.26     29.96    -19.83     24.00
   33.8491     29.66     29.92    -19.39     24.00
   33.8593     27.80     29.87    -21.20     24.00
   33.8695     28.73     29.82    -20.22     24.00
   33.8796     28.43     29.77    -20.47     24.00
   33.8898     28.93     29.72    -19.92     24.00
   33.9000     28.34     29.67    -20.46     24.00
   33.9101     28.71     29.62    -20.04     24.00
   33.9203     28.59     29.57    -20.11     24.00
   33.9305     29.20     29.52    -19.45     24.00
   33.9406     28.41     29.47    -20.19     24.00
   33.9508     27.55     29.42    -21.00     24.00
   33.9610     28.48     29.37    -20.02     24.00
   33.9711     29.13     29.32    -19.32     24.00
   33.9813     28.03     29.27    -20.37     24.00
   33.9915     28.62     29.22    -19.73     24.00
   34.0016     28.18     29.17    -20.12     24.00
   34.0118     28.97     29.12    -19.28     24.00
   34.0219     28.02     29.07    -20.18     24.00
   34.0321     27.15     29.02    -21.00     24.00
   34.0423     27.84     28.97    -20.26     24.00
   34.0524     27.29     28.92    -20.76     24.00
   34.0626     27.91     28.87    -20.09     24.00
   34.0728     27.54     28.82    -20.41     24.00
   34.0829     27.65     28.77    -20.25     24.00
   34.0931     27.82     28.72    -20.03     24.00
   34.1033     27.73     28.67    -20.07     24.00
   34.1134     27.35     28.62    -20.40     24.00
   34.1236     27.66     28.57    -20.04     24.00
   34.1338     27.37     28.52    -20.28     24.00
   34.1439     27.16     28.47    -20.44     24.00
   34.1541     27.60     28.42    -19.95     24.00
   34.1642     27.62     28.37    -19.88     24.00
   34.1744     27.51     28.32    -19.94     24.00
   34.1846     27.37     28.27    -20.03     24.00
   34.1947     27.33     28.22    -20.02     24.00
   34.2049     27.03     28.18    -20.28     24.00
   34.2151     27.26     28.13    -20.00     24.00
   34.2252     27.07     28.08    -20.14     24.00
   34.2354     26.51     28.03    -20.65     24.00
   34.2456     26.78     27.98    -20.33     24.00
   34.2557     27.12     27.94    -19.95     24.00
   34.2659     26.89     27.89    -20.13     24.00
   34.2761     27.24     27.84    -19.73     24.00
   34.2862     26.78     27.79    -20.14     24.00
   34.2964     27.01     27.75    -19.87     24.00
   34.3066     26.82     27.70    -20.01     24.00
   34.3167     27.16     27.65    -19.62     24.00
   34.3269     26.04     27.61    -20.70     24.00
   34.3370     27.12     27.56    -19.57     24.00
   34.3472     26.99     27.52    -19.66     24.00
   34.3574     27.08     27.47    -19.52     24.00
   34.3675     27.51     27.43    -19.05     24.00
   34.3777     27.90     27.38    -18.61     24.00
   34.3879     26.98     27.34    -19.49     24.00
   34.3980     26.51     27.29    -19.91     24.00
   34.4082     27.03     27.25    -19.35     24.00
   34.4184     27.21     27.20    -19.12     24.00
   34.4285     25.80     27.16    -20.49     24.00
   34.4387     26.06     27.12    -20.19     24.00
   34.4489     26.24     27.07    -19.96     24.00
   34.4590     26.24     27.03    -19.92     24.00
   34.4692     26.55     26.99    -19.57     24.00
   34.4793     26.73     26.95    -19.35     24.00
   34.4895     27.40     26.91    -18.64     24.00
   34.4997     27.38     26.86    -18.61     24.00
   34.5098     27.46     26.82    -18.49     24.00
   34.5200     26.50     26.78    -19.41     24.00
   34.5302     26.26     26.74    -19.61     24.00
   34.5403     27.15     26.70    -18.68     24.00
   34.5505     25.92     26.66    -19.87     24.00
   34.5607     25.90     26.62    -19.85     24.00
   34.5708     26.93     26.59    -18.79     24.00
   34.5810     26.66     26.55    -19.02     24.00
   34.5912     27.12     26.51    -18.52     24.00
   34.6013     26.40     26.47    -19.20     24.00
   34.6115     26.35     26.43    -19.21     24.00
   34.6217     26.27     26.40    -19.26     24.00
   34.6318     26.03     26.36    -19.46     24.00
   34.6420     25.78     26.32    -19.67     24.00
   34.6521     26.96     26.29    -18.46     24.00
   34.6623     26.79     26.25    -18.59     24.00
   34.6725     26.34     26.22    -19.01     24.00
   34.6826     26.71     26.18    -18.60     24.00
   34.6928     26.49     26.15    -18.79     24.00
   34.7030     25.88     26.11    -19.36     24.00
   34.7131     25.91     26.08    -19.30     24.00
   34.7233     25.73     26.04    -19.44     24.00
   34.7335     25.74     26.01    -19.40     24.00
   34.7436     26.68     25.98    -18.43     24.00
   34.7538     25.23     25.95    -19.85     24.00
   34.7640     26.03     25.91    -19.01     24.00
   34.7741     25.96     25.88    -19.05     24.00
   34.7843     25.75     25.85    -19.23     24.00
   34.7944     25.34     25.82    -19.61     24.00
   34.8046     26.58     25.79    -18.34     24.00
   34.8148     26.02     25.76    -18.87     24.00
   34.8249     26.11     25.73    -18.75     24.00
   34.8351     25.48     25.70    -19.35     24.00
   34.8453     26.21     25.67    -18.59     24.00
   34.8554     26.33     25.64    -18.44     24.00
   34.8656     26.41     25.61    -18.33     24.00
   34.8758     25.41     25.59    -19.31     24.00
   34.8859     25.81     25.56    -18.88     24.00
   34.8961     25.98     25.53    -18.68     24.00
   34.9063     26.12     25.50    -18.51     24.00
   34.9164     25.67     25.48    -18.94     24.00
   34.9266     25.78     25.45    -18.80     24.00
   34.9367     26.04     25.43    -18.52     24.00
   34.9469     25.87     25.40    -18.66     24.00
   34.9571     26.04     25.37    -18.46     24.00
   34.9672     25.13     25.35    -19.35     24.00
   34.9774     26.09     25.33    -18.37     24.00
   34.9876     25.34     25.30    -19.09     24.00
   34.9977     25.30     25.28    -19.11     24.00
   35.0079     25.77     25.25    -18.61     24.00
   35.0181     25.29     25.23    -19.07     24.00
   35.0282     25.26     25.21    -19.08     24.00
   35.0384     25.71     25.19    -18.61     24.00
   35.0486     25.74     25.16    -18.55     24.00
   35.0587     25.52     25.14    -18.75     24.00
   35.0689     25.15     25.12    -19.10     24.00
   35.0791     25.17     25.10    -19.06     24.00
   35.0892     25.96     25.08    -18.25     24.00
   35.0994     25.31     25.06    -18.88     24.00
   35.1095     26.10     25.04    -18.07     24.00
   35.1197     25.89     25.02    -18.26     24.00
   35.1299     26.22     25.00    -17.91     24.00
   35.1400     25.40     24.98    -18.71     24.00
   35.1502     25.77     24.96    -18.32     24.00
   35.1604     25.99     24.94    -18.08     24.00
   35.1705     26.12     24.92    -17.93     24.00
   35.1807     25.55     24.90    -18.48     24.00
   35.1909     25.43     24.89    -18.59     24.00
   35.2010     25.64     24.87    -18.36     24.00
   35.2112     25.52     24.85    -18.46     24.00
   35.2214     25.34     24.84    -18.63     24.00
   35.2315     25.78     24.82    -18.17     24.00
   35.2417     25.26     24.80    -18.67     24.00
   35.2518     25.29     24.79    -18.63     24.00
   35.2620     25.77     24.77    -18.13     24.00
   35.2722     25.65     24.76    -18.24     24.00
   35.2823     25.11     24.74    -18.76     24.00
   35.2925     26.29     24.72    -17.56     24.00
   35.3027     25.40     24.71    -18.44     24.00
   35.3128     25.30     24.70    -18.53     24.00
   35.3230     25.25     24.68    -18.56     24.00
   35.3332     26.05     24.67    -17.75     24.00
   35.3433     25.09     24.65    -18.69     24.00
   35.3535     25.59     24.64    -18.18     24.00
   35.3637     24.63     24.63    -19.13     24.00
   35.3738     25.20     24.61    -18.54     24.00
   35.3840     25.60     24.60    -18.13     24.00
   35.3942     26.38     24.59    -17.34     24.00
   35.4043     24.38     24.58    -19.33     24.00
   35.4145     25.04     24.56    -18.65     24.00
   35.4246     25.66     24.55    -18.02     24.00
   35.4348     25.85     24.54    -17.82     24.00
   35.4450     25.29     24.53    -18.37     24.00
   35.4551     24.90     24.52    -18.75     24.00
   35.4653     25.24     24.51    -18.40     24.00
   35.4755     25.59     24.50    -18.04     24.00
   35.4856     24.57     24.49    -19.05     24.00
   35.4958     25.05     24.48    -18.56     24.00
   35.5060     25.24     24.47    -18.36     24.00
   35.5161     24.74     24.46    -18.85     24.00
   35.5263     24.95     24.45    -18.63     24.00
   35.5365     24.67     24.44    -18.90     24.00
   35.5466     24.98     24.43    -18.58     24.00
   35.5568     25.57     24.42    -17.98     24.00
   35.5669     24.65     24.41    -18.89     24.00
   35.5771     23.84     24.40    -19.69     24.00
   35.5873     24.60     24.39    -18.92     24.00
   35.5974     25.13     24.38    -18.38     24.00
   35.6076     25.12     24.38    -18.39     24.00
   35.6178     25.13     24.37    -18.37     24.00
   35.6279     25.29     24.36    -18.20     24.00
   35.6381     25.61     24.35    -17.87     24.00
   35.6483     24.72     24.34    -18.75     24.00
   35.6584     25.09     24.34    -18.38     24.00
   35.6686     24.93     24.33    -18.53     24.00
   35.6788     25.12     24.32    -18.33     24.00
   35.6889     24.80     24.32    -18.65     24.00
   35.6991     24.70     24.31    -18.74     24.00
   35.7093     25.49     24.30    -17.94     24.00
   35.7194     24.91     24.30    -18.52     24.00
   35.7296     25.16     24.29    -18.26     24.00
   35.7397     25.03     24.28    -18.38     24.00
   35.7499     25.97     24.28    -17.44     24.00
   35.7601     24.32     24.27    -19.08     24.00
   35.7702     24.65     24.26    -18.74     24.00
   35.7804     24.84     24.26    -18.55     24.00
   35.7906     24.56     24.25    -18.82     24.00
   35.8007     24.87     24.25    -18.51     24.00
   35.8109     25.61     24.24    -17.76     24.00
   35.8211     24.90     24.24    -18.47     24.00
   35.8312     24.06     24.23    -19.30     24.00
   35.8414     25.21     24.23    -18.15     24.00
   35.8516     24.06     24.22    -19.29     24.00
   35.8617     24.05     24.22    -19.30     24.00
   35.8719     24.74     24.21    -18.60     24.00
   35.8820     25.20     24.21    -18.14     24.00
   35.8922     24.38     24.20    -18.95     24.00
   35.9024     25.14     24.20    -18.19     24.00
   35.9125     24.53     24.19    -18.79     24.00
   35.9227     24.47     24.19    -18.85     24.00
   35.9329     25.09     24.19    -18.23     24.00
   35.9430     25.25     24.18    -18.06     24.00
   35.9532     25.85     24.18    -17.46     24.00
   35.9634     25.09     24.17    -18.21     24.00
   35.9735     24.74     24.17    -18.56     24.00
   35.9837     24.95     24.17    -18.35     24.00
   35.9939     25.32     24.16    -17.97     24.00
