! WinPLOTR profile fitting results:
!   data file: G112--5-40-0.01-1000ms.xy
!    wave (A):      1.54060     1.54060     0.50000
!
!   2theta(deg.) sig_2th        d(A)   Intensity     sig_int         FWHM    FWHM_sig         ETA     ETA_sig
!------------------------------------------------------------------------------------------------------------------
   18.677660    0.006362     4.74695      136.93        3.28     0.803019    0.015224    0.026235    0.027248
   20.432638    0.024916     4.34302       91.55        4.92     1.680965    0.087588    0.026235    0.027248
   22.526310    0.011978     3.94388      104.00        3.02     1.119690    0.029747    0.026235    0.027248
   28.583961    0.000000     3.12035       41.21        2.00     1.226169    0.048086    0.026235    0.027248
   30.296576    0.000000     2.94775       35.60        3.70     3.397220    0.352346    0.026235    0.027248
   33.408520    0.000000     2.67994       15.75        2.22     2.033423    0.222462    0.026235    0.027248
   17.577276    0.000000     5.04156       64.90        2.93     1.879701    0.000000    0.026235    0.027248
   20.187969    0.000000     4.39510      800.50       11.46    10.826113    0.160527    0.026235    0.027248
   18.648062    0.005531     4.75442      140.85        2.61     0.741584    0.027837    0.448724    0.009816
   20.600437    0.022269     4.30802       24.14        2.03     0.650482    0.061394    0.448724    0.009816
   22.541626    0.010346     3.94123       97.74        2.62     0.984428    0.035331    0.448724    0.009816
   28.512150    0.019893     3.12804       62.32        1.99     1.457083    0.054724    0.448724    0.009816
   29.983290    0.000000     2.97783       39.43        2.18     2.975338    0.013865    0.448724    0.009816
   33.366749    0.000000     2.68320       25.79        1.44     2.975338    0.013865    0.448724    0.009816
   19.737230    0.021981     4.49444     1056.10        6.80     8.663785    0.065615    0.448724    0.009816
