! WinPLOTR profile fitting results:
!   data file: G112--5-40-0.01-1000ms.xy
!    wave (A):      1.54060     1.54060     0.50000
!
!   2theta(deg.) sig_2th        d(A)   Intensity     sig_int         FWHM    FWHM_sig         ETA     ETA_sig
!------------------------------------------------------------------------------------------------------------------
   18.677660    0.006362     4.74695      136.93        3.28     0.803019    0.015224    0.026235    0.027248
   20.432638    0.024916     4.34302       91.55        4.92     1.680965    0.087588    0.026235    0.027248
   22.526310    0.011978     3.94388      104.00        3.02     1.119690    0.029747    0.026235    0.027248
   28.583961    0.000000     3.12035       41.21        2.00     1.226169    0.048086    0.026235    0.027248
   30.296576    0.000000     2.94775       35.60        3.70     3.397220    0.352346    0.026235    0.027248
   33.408520    0.000000     2.67994       15.75        2.22     2.033423    0.222462    0.026235    0.027248
   17.577276    0.000000     5.04156       64.90        2.93     1.879701    0.000000    0.026235    0.027248
   20.187969    0.000000     4.39510      800.50       11.46    10.826113    0.160527    0.026235    0.027248
   18.672165    0.003887     4.74834      126.11        1.21     0.833268    0.007939   -0.797025    0.007109
   20.425268    0.013052     4.34457       99.61        1.37     1.755935    0.027129   -0.797025    0.007109
   22.529844    0.006845     3.94326      102.34        1.17     1.187233    0.013819   -0.797025    0.007109
   28.544102    0.000000     3.12462       36.10        0.75     1.172558    0.025568   -0.797025    0.007109
   30.064413    0.000000     2.96998       27.04        0.83     2.351895    0.000000   -0.797025    0.007109
   33.475719    0.000000     2.67471       19.48        0.69     2.351895    0.000000   -0.797025    0.007109
   17.500000    0.000000     5.06365       81.01        1.42     2.351895    0.000000   -0.797025    0.007109
   20.331715    0.000000     4.36435      695.59        2.98    11.264647    0.046415   -0.797025    0.007109
