! WinPLOTR profile fitting results:
!   data file: G101--5-40-0.01-1000ms.xy
!    wave (A):      1.54060     1.54060     1.00000
!
!   2theta(deg.) sig_2th        d(A)   Intensity     sig_int         FWHM    FWHM_sig         ETA     ETA_sig
!------------------------------------------------------------------------------------------------------------------
   18.669142    0.000000     4.74910      209.52        0.00     0.779517    0.000000    0.933004    0.010059
   20.551394    0.000000     4.31819      105.99        0.00     1.211902    0.000000    0.933004    0.010059
   22.493736    0.000000     3.94951      188.42        0.00     1.214378    0.000000    0.933004    0.010059
   28.576784    0.000000     3.12112       55.41        0.00     1.079117    0.000000    0.933004    0.010059
   29.855888    0.000000     2.99025       29.28        0.00     3.423889    0.000000    0.933004    0.010059
   33.380329    0.000000     2.68214       14.01        0.00     1.445951    0.000000    0.933004    0.010059
   16.983709    0.000000     5.21640      181.12        9.21     3.852285    0.183159    0.933004    0.010059
   20.118004    0.000000     4.41023      991.99       28.95    12.393860    0.265809    0.933004    0.010059
   18.656015    0.000000     4.75241      154.81        3.75     0.744941    0.018995    0.612322    0.013111
   20.483501    0.000000     4.33235       28.16        3.37     0.702829    0.080462    0.612322    0.013111
   22.389307    0.000000     3.96770      112.87        4.20     1.077458    0.036671    0.612322    0.013111
   28.550543    0.000000     3.12393       64.08        2.43     1.356138    0.057353    0.612322    0.013111
   30.090855    0.000000     2.96743       25.51        2.02     2.236068    0.000000    0.612322    0.013111
   33.302006    0.000000     2.68827       20.27        1.43     2.236068    0.000000    0.612322    0.013111
   19.645725    0.029939     4.51517     1089.99       10.88     8.908262    0.109968    0.612322    0.013111
