 => TITLE: 
 => Data file name: C:\Users\stefano\Nextcloud2\uni\master-thesis\XRD\data\G101\G101--5-40-0.01-1000ms.xy
 => Instrm        :    1
 => Lambda(1&2)   :   1.54060  1.54060
 => Numb.of.points:      2951
 => Numb.of.peaks :         8
    2Theta     Yobs     Ycalc  Yobs-Ycal    Backg    Bragg     Posr  Intensity   FWHM    Eta
    6.0086     23.25     25.88    -30.04     24.00   18.6584     -2.47     146.55  0.8124  0.2814
    6.0187     23.49     25.88    -29.80     24.00   20.5558     -2.47      45.21  1.0475  0.2814
    6.0289     24.61     25.89    -28.68     24.00   22.5182     -2.47     107.68  1.1207  0.2814
    6.0391     24.29     25.89    -29.01     24.00   28.5758     -2.47      29.04  0.9448  0.2814
    6.0492     23.86     25.89    -29.44     24.00   28.9252     -2.47      74.13  4.1124  0.2814
    6.0594     23.98     25.90    -29.32     24.00   33.1454     -2.47      11.06  1.4775  0.2814
    6.0696     23.29     25.90    -30.02     24.00   17.1157     -2.47      18.50  1.5887  0.2814
    6.0797     23.01     25.90    -30.30     24.00   19.6245     -2.47     865.47  8.8856  0.2814
    6.0899     24.02     25.91    -29.29     24.00
    6.1001     24.48     25.91    -28.84     24.00
    6.1102     24.13     25.91    -29.19     24.00
    6.1204     23.63     25.92    -29.69     24.00
    6.1306     23.51     25.92    -29.82     24.00
    6.1407     23.77     25.92    -29.56     24.00
    6.1509     23.48     25.93    -29.85     24.00
    6.1611     23.68     25.93    -29.66     24.00
    6.1712     23.79     25.94    -29.55     24.00
    6.1814     23.63     25.94    -29.72     24.00
    6.1915     23.48     25.94    -29.87     24.00
    6.2017     23.27     25.95    -30.08     24.00
    6.2119     23.77     25.95    -29.59     24.00
    6.2220     23.34     25.95    -30.02     24.00
    6.2322     24.24     25.96    -29.12     24.00
    6.2424     23.59     25.96    -29.78     24.00
    6.2525     23.08     25.96    -30.29     24.00
    6.2627     23.92     25.97    -29.45     24.00
    6.2729     23.64     25.97    -29.74     24.00
    6.2830     23.68     25.98    -29.70     24.00
    6.2932     23.76     25.98    -29.63     24.00
    6.3034     23.71     25.98    -29.68     24.00
    6.3135     22.95     25.99    -30.44     24.00
    6.3237     23.65     25.99    -29.75     24.00
    6.3338     23.32     25.99    -30.08     24.00
    6.3440     24.17     26.00    -29.23     24.00
    6.3542     23.54     26.00    -29.87     24.00
    6.3643     23.23     26.01    -30.18     24.00
    6.3745     23.49     26.01    -29.93     24.00
    6.3847     23.91     26.01    -29.51     24.00
    6.3948     23.20     26.02    -30.22     24.00
    6.4050     23.45     26.02    -29.98     24.00
    6.4152     22.84     26.03    -30.59     24.00
    6.4253     23.12     26.03    -30.32     24.00
    6.4355     23.94     26.03    -29.50     24.00
    6.4457     23.43     26.04    -30.01     24.00
    6.4558     23.63     26.04    -29.82     24.00
    6.4660     23.24     26.05    -30.21     24.00
    6.4762     23.12     26.05    -30.34     24.00
    6.4863     23.75     26.05    -29.71     24.00
    6.4965     23.61     26.06    -29.85     24.00
    6.5066     23.00     26.06    -30.47     24.00
    6.5168     23.07     26.07    -30.40     24.00
    6.5270     22.85     26.07    -30.63     24.00
    6.5371     23.45     26.07    -30.03     24.00
    6.5473     22.73     26.08    -30.75     24.00
    6.5575     23.57     26.08    -29.92     24.00
    6.5676     23.54     26.09    -29.95     24.00
    6.5778     23.45     26.09    -30.05     24.00
    6.5880     22.46     26.10    -31.04     24.00
    6.5981     22.93     26.10    -30.58     24.00
    6.6083     23.59     26.10    -29.92     24.00
    6.6185     23.39     26.11    -30.12     24.00
    6.6286     23.71     26.11    -29.81     24.00
    6.6388     24.54     26.12    -28.98     24.00
    6.6489     23.58     26.12    -29.95     24.00
    6.6591     23.30     26.13    -30.23     24.00
    6.6693     23.07     26.13    -30.47     24.00
    6.6794     24.30     26.13    -29.24     24.00
    6.6896     22.90     26.14    -30.64     24.00
    6.6998     23.11     26.14    -30.44     24.00
    6.7099     24.27     26.15    -29.28     24.00
    6.7201     24.11     26.15    -29.45     24.00
    6.7303     23.55     26.16    -30.01     24.00
    6.7404     23.59     26.16    -29.98     24.00
    6.7506     23.47     26.17    -30.10     24.00
    6.7608     23.02     26.17    -30.56     24.00
    6.7709     24.05     26.18    -29.53     24.00
    6.7811     24.45     26.18    -29.14     24.00
    6.7913     24.01     26.18    -29.58     24.00
    6.8014     24.13     26.19    -29.47     24.00
    6.8116     23.67     26.19    -29.93     24.00
    6.8217     23.05     26.20    -30.55     24.00
    6.8319     23.90     26.20    -29.71     24.00
    6.8421     24.06     26.21    -29.55     24.00
    6.8522     23.90     26.21    -29.72     24.00
    6.8624     23.30     26.22    -30.32     24.00
    6.8726     23.11     26.22    -30.52     24.00
    6.8827     24.02     26.23    -29.61     24.00
    6.8929     22.99     26.23    -30.65     24.00
    6.9031     24.07     26.24    -29.57     24.00
    6.9132     23.30     26.24    -30.35     24.00
    6.9234     24.42     26.25    -29.23     24.00
    6.9336     23.65     26.25    -30.01     24.00
    6.9437     24.04     26.26    -29.62     24.00
    6.9539     23.95     26.26    -29.72     24.00
    6.9640     23.91     26.27    -29.76     24.00
    6.9742     23.98     26.27    -29.70     24.00
    6.9844     23.54     26.28    -30.14     24.00
    6.9945     23.52     26.28    -30.17     24.00
    7.0047     24.31     26.29    -29.38     24.00
    7.0149     24.12     26.29    -29.58     24.00
    7.0250     23.63     26.30    -30.07     24.00
    7.0352     24.01     26.30    -29.70     24.00
    7.0454     24.19     26.31    -29.52     24.00
    7.0555     24.30     26.31    -29.42     24.00
    7.0657     24.88     26.32    -28.84     24.00
    7.0759     23.52     26.32    -30.21     24.00
    7.0860     24.88     26.33    -28.86     24.00
    7.0962     24.56     26.33    -29.18     24.00
    7.1064     24.23     26.34    -29.52     24.00
    7.1165     23.33     26.35    -30.42     24.00
    7.1267     24.89     26.35    -28.87     24.00
    7.1368     24.06     26.36    -29.70     24.00
    7.1470     23.47     26.36    -30.30     24.00
    7.1572     25.02     26.37    -28.75     24.00
    7.1673     23.98     26.37    -29.80     24.00
    7.1775     23.80     26.38    -29.98     24.00
    7.1877     24.50     26.38    -29.29     24.00
    7.1978     24.60     26.39    -29.20     24.00
    7.2080     24.45     26.39    -29.35     24.00
    7.2182     23.87     26.40    -29.94     24.00
    7.2283     23.36     26.41    -30.45     24.00
    7.2385     24.42     26.41    -29.40     24.00
    7.2487     23.30     26.42    -30.52     24.00
    7.2588     23.78     26.42    -30.05     24.00
    7.2690     24.25     26.43    -29.59     24.00
    7.2791     24.23     26.44    -29.61     24.00
    7.2893     24.41     26.44    -29.44     24.00
    7.2995     24.95     26.45    -28.90     24.00
    7.3096     24.43     26.45    -29.43     24.00
    7.3198     24.89     26.46    -28.97     24.00
    7.3300     24.54     26.46    -29.33     24.00
    7.3401     24.64     26.47    -29.24     24.00
    7.3503     24.26     26.48    -29.62     24.00
    7.3605     24.22     26.48    -29.67     24.00
    7.3706     24.98     26.49    -28.91     24.00
    7.3808     25.05     26.50    -28.85     24.00
    7.3910     24.66     26.50    -29.25     24.00
    7.4011     24.09     26.51    -29.82     24.00
    7.4113     24.58     26.51    -29.34     24.00
    7.4215     23.82     26.52    -30.11     24.00
    7.4316     24.89     26.53    -29.04     24.00
    7.4418     24.64     26.53    -29.30     24.00
    7.4519     24.88     26.54    -29.06     24.00
    7.4621     25.17     26.55    -28.78     24.00
    7.4723     25.42     26.55    -28.54     24.00
    7.4824     24.60     26.56    -29.36     24.00
    7.4926     24.91     26.56    -29.06     24.00
    7.5028     25.59     26.57    -28.39     24.00
    7.5129     24.87     26.58    -29.11     24.00
    7.5231     25.09     26.58    -28.90     24.00
    7.5333     24.38     26.59    -29.62     24.00
    7.5434     24.65     26.60    -29.35     24.00
    7.5536     24.94     26.60    -29.07     24.00
    7.5638     24.55     26.61    -29.47     24.00
    7.5739     24.52     26.62    -29.50     24.00
    7.5841     24.45     26.62    -29.58     24.00
    7.5942     25.21     26.63    -28.83     24.00
    7.6044     24.86     26.64    -29.18     24.00
    7.6146     25.70     26.64    -28.35     24.00
    7.6247     25.24     26.65    -28.82     24.00
    7.6349     24.97     26.66    -29.09     24.00
    7.6451     25.68     26.67    -28.39     24.00
    7.6552     25.96     26.67    -28.12     24.00
    7.6654     25.46     26.68    -28.63     24.00
    7.6756     24.68     26.69    -29.41     24.00
    7.6857     24.87     26.69    -29.23     24.00
    7.6959     25.16     26.70    -28.95     24.00
    7.7061     25.55     26.71    -28.56     24.00
    7.7162     25.96     26.72    -28.16     24.00
    7.7264     25.60     26.72    -28.53     24.00
    7.7365     25.53     26.73    -28.61     24.00
    7.7467     25.63     26.74    -28.51     24.00
    7.7569     25.45     26.74    -28.70     24.00
    7.7670     25.26     26.75    -28.90     24.00
    7.7772     25.97     26.76    -28.20     24.00
    7.7874     24.65     26.77    -29.52     24.00
    7.7975     25.40     26.77    -28.78     24.00
    7.8077     25.51     26.78    -28.68     24.00
    7.8179     25.68     26.79    -28.52     24.00
    7.8280     25.46     26.80    -28.74     24.00
    7.8382     25.78     26.80    -28.43     24.00
    7.8484     25.26     26.81    -28.96     24.00
    7.8585     25.51     26.82    -28.72     24.00
    7.8687     24.70     26.83    -29.53     24.00
    7.8789     25.22     26.84    -29.02     24.00
    7.8890     26.11     26.84    -28.14     24.00
    7.8992     26.27     26.85    -27.99     24.00
    7.9093     25.37     26.86    -28.90     24.00
    7.9195     26.18     26.87    -28.09     24.00
    7.9297     26.12     26.88    -28.16     24.00
    7.9398     26.01     26.88    -28.28     24.00
    7.9500     26.21     26.89    -28.09     24.00
    7.9602     26.27     26.90    -28.04     24.00
    7.9703     26.59     26.91    -27.72     24.00
    7.9805     25.77     26.92    -28.55     24.00
    7.9907     26.28     26.92    -28.05     24.00
    8.0008     25.68     26.93    -28.66     24.00
    8.0110     25.95     26.94    -28.40     24.00
    8.0212     25.98     26.95    -28.38     24.00
    8.0313     24.71     26.96    -29.65     24.00
    8.0415     26.29     26.97    -28.08     24.00
    8.0516     26.90     26.98    -27.48     24.00
    8.0618     25.71     26.98    -28.68     24.00
    8.0720     25.50     26.99    -28.90     24.00
    8.0821     26.46     27.00    -27.95     24.00
    8.0923     26.04     27.01    -28.38     24.00
    8.1025     26.06     27.02    -28.36     24.00
    8.1126     26.81     27.03    -27.62     24.00
    8.1228     25.69     27.04    -28.75     24.00
    8.1330     26.73     27.05    -27.72     24.00
    8.1431     26.95     27.05    -27.51     24.00
    8.1533     26.37     27.06    -28.10     24.00
    8.1635     26.11     27.07    -28.37     24.00
    8.1736     26.90     27.08    -27.59     24.00
    8.1838     27.52     27.09    -26.98     24.00
    8.1940     26.54     27.10    -27.97     24.00
    8.2041     26.18     27.11    -28.34     24.00
    8.2143     27.04     27.12    -27.48     24.00
    8.2244     26.80     27.13    -27.73     24.00
    8.2346     26.38     27.14    -28.16     24.00
    8.2448     26.26     27.15    -28.29     24.00
    8.2549     26.48     27.16    -28.08     24.00
    8.2651     26.82     27.17    -27.75     24.00
    8.2753     26.52     27.18    -28.06     24.00
    8.2854     25.99     27.18    -28.60     24.00
    8.2956     27.39     27.19    -27.21     24.00
    8.3058     26.45     27.20    -28.16     24.00
    8.3159     26.35     27.21    -28.27     24.00
    8.3261     27.19     27.22    -27.44     24.00
    8.3363     26.73     27.23    -27.91     24.00
    8.3464     26.86     27.24    -27.79     24.00
    8.3566     27.13     27.25    -27.53     24.00
    8.3667     26.93     27.26    -27.74     24.00
    8.3769     27.46     27.27    -27.22     24.00
    8.3871     26.88     27.28    -27.81     24.00
    8.3972     27.39     27.29    -27.31     24.00
    8.4074     26.98     27.30    -27.73     24.00
    8.4176     27.69     27.31    -27.03     24.00
    8.4277     27.07     27.33    -27.66     24.00
    8.4379     27.24     27.34    -27.50     24.00
    8.4481     27.73     27.35    -27.02     24.00
    8.4582     27.66     27.36    -27.10     24.00
    8.4684     27.08     27.37    -27.69     24.00
    8.4786     26.91     27.38    -27.87     24.00
    8.4887     27.84     27.39    -26.95     24.00
    8.4989     26.73     27.40    -28.08     24.00
    8.5091     27.18     27.41    -27.64     24.00
    8.5192     27.71     27.42    -27.12     24.00
    8.5294     28.57     27.43    -26.27     24.00
    8.5395     27.00     27.44    -27.85     24.00
    8.5497     27.02     27.45    -27.84     24.00
    8.5599     27.63     27.47    -27.24     24.00
    8.5700     27.74     27.48    -27.14     24.00
    8.5802     27.68     27.49    -27.21     24.00
    8.5904     27.41     27.50    -27.49     24.00
    8.6005     27.29     27.51    -27.63     24.00
    8.6107     27.98     27.52    -26.95     24.00
    8.6209     28.55     27.53    -26.39     24.00
    8.6310     27.77     27.54    -27.18     24.00
    8.6412     27.54     27.56    -27.42     24.00
    8.6514     27.10     27.57    -27.87     24.00
    8.6615     28.14     27.58    -26.85     24.00
    8.6717     27.46     27.59    -27.54     24.00
    8.6818     27.77     27.60    -27.24     24.00
    8.6920     28.20     27.62    -26.82     24.00
    8.7022     27.51     27.63    -27.52     24.00
    8.7123     29.00     27.64    -26.04     24.00
    8.7225     27.95     27.65    -27.11     24.00
    8.7327     27.83     27.66    -27.24     24.00
    8.7428     27.51     27.68    -27.57     24.00
    8.7530     28.24     27.69    -26.85     24.00
    8.7632     26.57     27.70    -28.54     24.00
    8.7733     28.47     27.71    -26.65     24.00
    8.7835     27.76     27.72    -27.37     24.00
    8.7937     27.70     27.74    -27.44     24.00
    8.8038     28.83     27.75    -26.33     24.00
    8.8140     27.86     27.76    -27.31     24.00
    8.8242     27.71     27.78    -27.47     24.00
    8.8343     27.91     27.79    -27.28     24.00
    8.8445     29.06     27.80    -26.15     24.00
    8.8546     27.37     27.81    -27.85     24.00
    8.8648     28.30     27.83    -26.93     24.00
    8.8750     29.52     27.84    -25.73     24.00
    8.8851     27.99     27.85    -27.27     24.00
    8.8953     28.57     27.87    -26.70     24.00
    8.9055     29.10     27.88    -26.19     24.00
    8.9156     28.49     27.89    -26.81     24.00
    8.9258     28.40     27.91    -26.91     24.00
    8.9360     29.23     27.92    -26.10     24.00
    8.9461     28.48     27.93    -26.86     24.00
    8.9563     28.90     27.95    -26.45     24.00
    8.9665     28.18     27.96    -27.19     24.00
    8.9766     28.85     27.97    -26.53     24.00
    8.9868     28.66     27.99    -26.73     24.00
    8.9969     28.57     28.00    -26.84     24.00
    9.0071     28.90     28.02    -26.52     24.00
    9.0173     28.76     28.03    -26.68     24.00
    9.0274     29.46     28.04    -25.99     24.00
    9.0376     28.98     28.06    -26.48     24.00
    9.0478     29.13     28.07    -26.35     24.00
    9.0579     28.90     28.09    -26.59     24.00
    9.0681     28.44     28.10    -27.07     24.00
    9.0783     29.34     28.12    -26.18     24.00
    9.0884     28.78     28.13    -26.76     24.00
    9.0986     28.62     28.15    -26.93     24.00
    9.1088     28.82     28.16    -26.75     24.00
    9.1189     29.13     28.18    -26.45     24.00
    9.1291     28.87     28.19    -26.73     24.00
    9.1393     29.09     28.21    -26.52     24.00
    9.1494     29.95     28.22    -25.68     24.00
    9.1596     29.88     28.24    -25.76     24.00
    9.1697     28.58     28.25    -27.08     24.00
    9.1799     29.09     28.27    -26.58     24.00
    9.1901     29.12     28.28    -26.57     24.00
    9.2002     30.21     28.30    -25.49     24.00
    9.2104     29.50     28.31    -26.22     24.00
    9.2206     28.59     28.33    -27.14     24.00
    9.2307     29.23     28.34    -26.52     24.00
    9.2409     29.63     28.36    -26.14     24.00
    9.2511     29.82     28.38    -25.96     24.00
    9.2612     30.05     28.39    -25.75     24.00
    9.2714     28.47     28.41    -27.34     24.00
    9.2816     27.70     28.42    -28.13     24.00
    9.2917     29.61     28.44    -26.24     24.00
    9.3019     30.32     28.46    -25.54     24.00
    9.3120     29.49     28.47    -26.39     24.00
    9.3222     29.15     28.49    -26.74     24.00
    9.3324     30.22     28.51    -25.69     24.00
    9.3425     29.64     28.52    -26.29     24.00
    9.3527     29.60     28.54    -26.34     24.00
    9.3629     30.40     28.56    -25.56     24.00
    9.3730     29.26     28.57    -26.72     24.00
    9.3832     29.99     28.59    -26.01     24.00
    9.3934     30.20     28.61    -25.81     24.00
    9.4035     29.13     28.62    -26.90     24.00
    9.4137     30.21     28.64    -25.84     24.00
    9.4239     30.20     28.66    -25.86     24.00
    9.4340     30.59     28.68    -25.49     24.00
    9.4442     29.77     28.69    -26.33     24.00
    9.4544     30.28     28.71    -25.84     24.00
    9.4645     30.16     28.73    -25.97     24.00
    9.4747     30.15     28.75    -26.00     24.00
    9.4848     29.86     28.76    -26.31     24.00
    9.4950     29.80     28.78    -26.39     24.00
    9.5052     30.73     28.80    -25.48     24.00
    9.5153     29.65     28.82    -26.57     24.00
    9.5255     30.02     28.84    -26.22     24.00
    9.5357     30.42     28.85    -25.84     24.00
    9.5458     30.09     28.87    -26.19     24.00
    9.5560     29.77     28.89    -26.53     24.00
    9.5662     30.13     28.91    -26.19     24.00
    9.5763     31.51     28.93    -24.82     24.00
    9.5865     30.35     28.95    -26.00     24.00
    9.5967     30.26     28.97    -26.11     24.00
    9.6068     30.27     28.99    -26.12     24.00
    9.6170     30.17     29.00    -26.24     24.00
    9.6271     29.88     29.02    -26.55     24.00
    9.6373     29.93     29.04    -26.52     24.00
    9.6475     29.95     29.06    -26.52     24.00
    9.6576     31.03     29.08    -25.46     24.00
    9.6678     30.74     29.10    -25.77     24.00
    9.6780     30.94     29.12    -25.59     24.00
    9.6881     30.11     29.14    -26.44     24.00
    9.6983     31.06     29.16    -25.51     24.00
    9.7085     30.55     29.18    -26.04     24.00
    9.7186     30.57     29.20    -26.04     24.00
    9.7288     30.74     29.22    -25.89     24.00
    9.7390     30.19     29.24    -26.46     24.00
    9.7491     30.74     29.26    -25.93     24.00
    9.7593     31.48     29.28    -25.21     24.00
    9.7694     30.29     29.30    -26.42     24.00
    9.7796     30.95     29.32    -25.78     24.00
    9.7898     30.89     29.34    -25.86     24.00
    9.7999     30.16     29.37    -26.61     24.00
    9.8101     30.26     29.39    -26.53     24.00
    9.8203     30.74     29.41    -26.07     24.00
    9.8304     31.20     29.43    -25.64     24.00
    9.8406     31.32     29.45    -25.54     24.00
    9.8508     31.24     29.47    -25.64     24.00
    9.8609     30.42     29.49    -26.48     24.00
    9.8711     30.96     29.52    -25.96     24.00
    9.8813     30.95     29.54    -25.99     24.00
    9.8914     31.20     29.56    -25.77     24.00
    9.9016     31.70     29.58    -25.29     24.00
    9.9118     31.09     29.60    -25.92     24.00
    9.9219     30.95     29.63    -26.08     24.00
    9.9321     31.43     29.65    -25.62     24.00
    9.9422     31.17     29.67    -25.91     24.00
    9.9524     31.51     29.69    -25.59     24.00
    9.9626     30.85     29.72    -26.27     24.00
    9.9727     31.45     29.74    -25.69     24.00
    9.9829     31.78     29.76    -25.39     24.00
    9.9931     31.38     29.78    -25.81     24.00
   10.0032     31.68     29.81    -25.53     24.00
   10.0134     32.49     29.83    -24.75     24.00
   10.0236     30.42     29.85    -26.84     24.00
   10.0337     30.98     29.88    -26.30     24.00
   10.0439     31.41     29.90    -25.90     24.00
   10.0541     31.66     29.93    -25.67     24.00
   10.0642     31.49     29.95    -25.87     24.00
   10.0744     31.47     29.97    -25.91     24.00
   10.0845     31.96     30.00    -25.44     24.00
   10.0947     31.82     30.02    -25.61     24.00
   10.1049     31.30     30.05    -26.15     24.00
   10.1150     31.99     30.07    -25.49     24.00
   10.1252     31.34     30.09    -26.16     24.00
   10.1354     30.99     30.12    -26.54     24.00
   10.1455     31.63     30.14    -25.92     24.00
   10.1557     31.09     30.17    -26.49     24.00
   10.1659     31.82     30.19    -25.78     24.00
   10.1760     32.23     30.22    -25.40     24.00
   10.1862     32.21     30.24    -25.44     24.00
   10.1964     32.49     30.27    -25.19     24.00
   10.2065     32.24     30.30    -25.46     24.00
   10.2167     32.51     30.32    -25.22     24.00
   10.2269     32.43     30.35    -25.32     24.00
   10.2370     31.68     30.37    -26.10     24.00
   10.2472     31.71     30.40    -26.10     24.00
   10.2573     31.88     30.43    -25.95     24.00
   10.2675     32.24     30.45    -25.62     24.00
   10.2777     32.38     30.48    -25.50     24.00
   10.2878     32.57     30.50    -25.34     24.00
   10.2980     32.10     30.53    -25.84     24.00
   10.3082     32.70     30.56    -25.26     24.00
   10.3183     32.93     30.59    -25.06     24.00
   10.3285     32.41     30.61    -25.61     24.00
   10.3387     31.82     30.64    -26.23     24.00
   10.3488     32.67     30.67    -25.40     24.00
   10.3590     32.57     30.69    -25.53     24.00
   10.3692     31.43     30.72    -26.70     24.00
   10.3793     32.44     30.75    -25.72     24.00
   10.3895     31.79     30.78    -26.39     24.00
   10.3996     31.74     30.81    -26.47     24.00
   10.4098     33.21     30.83    -25.03     24.00
   10.4200     32.54     30.86    -25.73     24.00
   10.4301     32.32     30.89    -25.98     24.00
   10.4403     32.38     30.92    -25.95     24.00
   10.4505     32.27     30.95    -26.08     24.00
   10.4606     33.01     30.98    -25.37     24.00
   10.4708     32.60     31.01    -25.81     24.00
   10.4810     33.37     31.04    -25.07     24.00
   10.4911     32.42     31.06    -26.05     24.00
   10.5013     32.39     31.09    -26.11     24.00
   10.5115     33.15     31.12    -25.38     24.00
   10.5216     32.80     31.15    -25.76     24.00
   10.5318     32.38     31.18    -26.21     24.00
   10.5420     33.86     31.21    -24.76     24.00
   10.5521     33.37     31.24    -25.28     24.00
   10.5623     32.91     31.27    -25.77     24.00
   10.5724     32.73     31.30    -25.98     24.00
   10.5826     33.57     31.33    -25.17     24.00
   10.5928     32.88     31.37    -25.89     24.00
   10.6029     32.90     31.40    -25.90     24.00
   10.6131     33.81     31.43    -25.02     24.00
   10.6233     33.65     31.46    -25.21     24.00
   10.6334     33.40     31.49    -25.50     24.00
   10.6436     33.44     31.52    -25.49     24.00
   10.6538     33.28     31.55    -25.68     24.00
   10.6639     33.01     31.58    -25.98     24.00
   10.6741     32.63     31.62    -26.39     24.00
   10.6843     33.21     31.65    -25.84     24.00
   10.6944     32.66     31.68    -26.43     24.00
   10.7046     34.21     31.71    -24.91     24.00
   10.7147     33.55     31.75    -25.60     24.00
   10.7249     34.23     31.78    -24.95     24.00
   10.7351     33.85     31.81    -25.37     24.00
   10.7452     33.68     31.84    -25.57     24.00
   10.7554     34.35     31.88    -24.93     24.00
   10.7656     33.15     31.91    -26.17     24.00
   10.7757     33.78     31.94    -25.57     24.00
   10.7859     33.37     31.98    -26.01     24.00
   10.7961     32.74     32.01    -26.68     24.00
   10.8062     33.87     32.04    -25.58     24.00
   10.8164     33.57     32.08    -25.91     24.00
   10.8266     33.70     32.11    -25.82     24.00
   10.8367     34.12     32.15    -25.43     24.00
   10.8469     33.70     32.18    -25.89     24.00
   10.8571     33.92     32.22    -25.70     24.00
   10.8672     32.58     32.25    -27.08     24.00
   10.8774     34.39     32.29    -25.30     24.00
   10.8875     32.74     32.32    -26.99     24.00
   10.8977     33.29     32.36    -26.47     24.00
   10.9079     33.41     32.39    -26.39     24.00
   10.9180     33.77     32.43    -26.06     24.00
   10.9282     33.42     32.46    -26.45     24.00
   10.9384     34.66     32.50    -25.25     24.00
   10.9485     34.48     32.54    -25.46     24.00
   10.9587     33.53     32.57    -26.45     24.00
   10.9689     34.57     32.61    -25.44     24.00
   10.9790     34.26     32.65    -25.79     24.00
   10.9892     34.11     32.68    -25.98     24.00
   10.9994     34.05     32.72    -26.08     24.00
   11.0095     34.63     32.76    -25.53     24.00
   11.0197     33.95     32.79    -26.25     24.00
   11.0298     34.21     32.83    -26.03     24.00
   11.0400     33.93     32.87    -26.34     24.00
   11.0502     34.32     32.91    -25.99     24.00
   11.0603     33.82     32.94    -26.53     24.00
   11.0705     34.54     32.98    -25.85     24.00
   11.0807     34.55     33.02    -25.88     24.00
   11.0908     34.52     33.06    -25.95     24.00
   11.1010     34.80     33.10    -25.70     24.00
   11.1112     34.89     33.14    -25.65     24.00
   11.1213     34.50     33.18    -26.08     24.00
   11.1315     35.77     33.22    -24.85     24.00
   11.1417     35.63     33.25    -25.03     24.00
   11.1518     34.56     33.29    -26.14     24.00
   11.1620     34.41     33.33    -26.33     24.00
   11.1722     34.29     33.37    -26.49     24.00
   11.1823     34.78     33.41    -26.04     24.00
   11.1925     35.12     33.45    -25.74     24.00
   11.2026     35.30     33.49    -25.60     24.00
   11.2128     35.69     33.53    -25.25     24.00
   11.2230     35.52     33.58    -25.46     24.00
   11.2331     34.17     33.62    -26.85     24.00
   11.2433     35.23     33.66    -25.83     24.00
   11.2535     34.85     33.70    -26.25     24.00
   11.2636     35.01     33.74    -26.14     24.00
   11.2738     34.52     33.78    -26.67     24.00
   11.2840     35.37     33.82    -25.86     24.00
   11.2941     35.07     33.87    -26.20     24.00
   11.3043     34.65     33.91    -26.66     24.00
   11.3145     36.09     33.95    -25.27     24.00
   11.3246     34.89     33.99    -26.51     24.00
   11.3348     35.77     34.04    -25.67     24.00
   11.3449     36.12     34.08    -25.36     24.00
   11.3551     36.00     34.12    -25.53     24.00
   11.3653     36.66     34.17    -24.91     24.00
   11.3754     34.94     34.21    -26.67     24.00
   11.3856     35.82     34.25    -25.84     24.00
   11.3958     35.46     34.30    -26.24     24.00
   11.4059     35.39     34.34    -26.36     24.00
   11.4161     35.02     34.38    -26.77     24.00
   11.4263     36.09     34.43    -25.75     24.00
   11.4364     36.01     34.47    -25.87     24.00
   11.4466     35.85     34.52    -26.07     24.00
   11.4568     35.50     34.56    -26.47     24.00
   11.4669     36.67     34.61    -25.34     24.00
   11.4771     35.15     34.65    -26.91     24.00
   11.4873     35.12     34.70    -26.99     24.00
   11.4974     36.90     34.75    -25.25     24.00
   11.5076     35.62     34.79    -26.58     24.00
   11.5177     35.94     34.84    -26.30     24.00
   11.5279     35.95     34.88    -26.34     24.00
   11.5381     34.56     34.93    -27.78     24.00
   11.5482     36.48     34.98    -25.90     24.00
   11.5584     35.10     35.02    -27.33     24.00
   11.5686     35.42     35.07    -27.06     24.00
   11.5787     37.22     35.12    -25.30     24.00
   11.5889     36.09     35.17    -26.48     24.00
   11.5991     36.09     35.21    -26.53     24.00
   11.6092     36.62     35.26    -26.05     24.00
   11.6194     35.79     35.31    -26.93     24.00
   11.6296     37.11     35.36    -25.65     24.00
   11.6397     37.02     35.41    -25.79     24.00
   11.6499     36.87     35.46    -25.99     24.00
   11.6600     36.44     35.50    -26.47     24.00
   11.6702     37.09     35.55    -25.87     24.00
   11.6804     36.15     35.60    -26.86     24.00
   11.6905     36.83     35.65    -26.23     24.00
   11.7007     37.01     35.70    -26.10     24.00
   11.7109     37.37     35.75    -25.79     24.00
   11.7210     36.56     35.80    -26.65     24.00
   11.7312     36.15     35.85    -27.11     24.00
   11.7414     36.69     35.90    -26.62     24.00
   11.7515     37.27     35.95    -26.09     24.00
   11.7617     36.73     36.01    -26.68     24.00
   11.7719     36.75     36.06    -26.71     24.00
   11.7820     37.38     36.11    -26.13     24.00
   11.7922     37.49     36.16    -26.08     24.00
   11.8023     37.67     36.21    -25.95     24.00
   11.8125     36.98     36.26    -26.69     24.00
   11.8227     37.18     36.32    -26.54     24.00
   11.8328     37.87     36.37    -25.90     24.00
   11.8430     37.57     36.42    -26.26     24.00
   11.8532     36.82     36.47    -27.06     24.00
   11.8633     38.16     36.53    -25.77     24.00
   11.8735     38.10     36.58    -25.89     24.00
   11.8837     37.37     36.63    -26.67     24.00
   11.8938     36.43     36.69    -27.66     24.00
   11.9040     37.09     36.74    -27.06     24.00
   11.9142     37.13     36.80    -27.07     24.00
   11.9243     38.20     36.85    -26.06     24.00
   11.9345     37.02     36.90    -27.29     24.00
   11.9447     38.39     36.96    -25.97     24.00
   11.9548     38.61     37.01    -25.81     24.00
   11.9650     38.00     37.07    -26.47     24.00
   11.9751     38.30     37.12    -26.23     24.00
   11.9853     37.30     37.18    -27.29     24.00
   11.9955     37.79     37.24    -26.85     24.00
   12.0056     37.84     37.29    -26.86     24.00
   12.0158     38.07     37.35    -26.68     24.00
   12.0260     38.12     37.40    -26.69     24.00
   12.0361     38.43     37.46    -26.44     24.00
   12.0463     38.32     37.52    -26.60     24.00
   12.0565     38.22     37.58    -26.76     24.00
   12.0666     38.84     37.63    -26.20     24.00
   12.0768     37.73     37.69    -27.37     24.00
   12.0870     39.49     37.75    -25.66     24.00
   12.0971     38.87     37.81    -26.34     24.00
   12.1073     38.07     37.86    -27.20     24.00
   12.1174     38.37     37.92    -26.96     24.00
   12.1276     38.73     37.98    -26.66     24.00
   12.1378     39.03     38.04    -26.42     24.00
   12.1479     38.04     38.10    -27.47     24.00
   12.1581     38.87     38.16    -26.69     24.00
   12.1683     39.32     38.22    -26.30     24.00
   12.1784     39.24     38.28    -26.44     24.00
   12.1886     39.49     38.34    -26.25     24.00
   12.1988     40.30     38.40    -25.50     24.00
   12.2089     39.19     38.46    -26.68     24.00
   12.2191     37.87     38.52    -28.06     24.00
   12.2293     40.10     38.58    -25.89     24.00
   12.2394     39.58     38.64    -26.47     24.00
   12.2496     38.66     38.70    -27.45     24.00
   12.2598     39.76     38.77    -26.41     24.00
   12.2699     39.50     38.83    -26.73     24.00
   12.2801     40.61     38.89    -25.69     24.00
   12.2902     39.21     38.95    -27.15     24.00
   12.3004     39.51     39.01    -26.91     24.00
   12.3106     39.12     39.08    -27.36     24.00
   12.3207     39.54     39.14    -27.01     24.00
   12.3309     40.35     39.20    -26.26     24.00
   12.3411     39.74     39.27    -26.93     24.00
   12.3512     39.91     39.33    -26.83     24.00
   12.3614     39.95     39.39    -26.85     24.00
   12.3716     38.96     39.46    -27.90     24.00
   12.3817     40.08     39.52    -26.85     24.00
   12.3919     39.34     39.59    -27.65     24.00
   12.4021     39.80     39.65    -27.26     24.00
   12.4122     40.22     39.72    -26.90     24.00
   12.4224     39.66     39.78    -27.53     24.00
   12.4325     40.65     39.85    -26.60     24.00
   12.4427     40.34     39.91    -26.98     24.00
   12.4529     39.78     39.98    -27.61     24.00
   12.4630     40.59     40.05    -26.86     24.00
   12.4732     40.89     40.11    -26.63     24.00
   12.4834     40.74     40.18    -26.85     24.00
   12.4935     40.74     40.25    -26.91     24.00
   12.5037     40.76     40.31    -26.96     24.00
   12.5139     41.17     40.38    -26.62     24.00
   12.5240     40.45     40.45    -27.41     24.00
   12.5342     41.13     40.52    -26.79     24.00
   12.5444     41.84     40.59    -26.15     24.00
   12.5545     41.02     40.65    -27.04     24.00
   12.5647     41.15     40.72    -26.98     24.00
   12.5749     40.49     40.79    -27.71     24.00
   12.5850     41.49     40.86    -26.78     24.00
   12.5952     41.55     40.93    -26.79     24.00
   12.6053     41.07     41.00    -27.34     24.00
   12.6155     41.23     41.07    -27.25     24.00
   12.6257     41.54     41.14    -27.01     24.00
   12.6358     41.51     41.21    -27.11     24.00
   12.6460     41.46     41.28    -27.23     24.00
   12.6562     41.38     41.35    -27.38     24.00
   12.6663     41.87     41.42    -26.96     24.00
   12.6765     42.68     41.49    -26.22     24.00
   12.6867     42.55     41.57    -26.42     24.00
   12.6968     42.56     41.64    -26.48     24.00
   12.7070     42.23     41.71    -26.89     24.00
   12.7172     42.11     41.78    -27.08     24.00
   12.7273     41.99     41.85    -27.27     24.00
   12.7375     42.62     41.93    -26.71     24.00
   12.7476     42.40     42.00    -27.01     24.00
   12.7578     41.65     42.07    -27.83     24.00
   12.7680     42.84     42.15    -26.71     24.00
   12.7781     41.73     42.22    -27.90     24.00
   12.7883     42.77     42.29    -26.93     24.00
   12.7985     42.02     42.37    -27.75     24.00
   12.8086     42.37     42.44    -27.48     24.00
   12.8188     42.45     42.52    -27.47     24.00
   12.8290     42.78     42.59    -27.22     24.00
   12.8391     42.78     42.67    -27.29     24.00
   12.8493     43.91     42.74    -26.24     24.00
   12.8595     43.49     42.82    -26.74     24.00
   12.8696     41.89     42.90    -28.41     24.00
   12.8798     42.91     42.97    -27.47     24.00
   12.8900     42.15     43.05    -28.30     24.00
   12.9001     43.73     43.12    -26.80     24.00
   12.9103     43.03     43.20    -27.58     24.00
   12.9204     43.54     43.28    -27.14     24.00
   12.9306     43.00     43.36    -27.76     24.00
   12.9408     42.40     43.43    -28.44     24.00
   12.9509     43.53     43.51    -27.39     24.00
   12.9611     43.18     43.59    -27.82     24.00
   12.9713     43.61     43.67    -27.47     24.00
   12.9814     44.45     43.75    -26.70     24.00
   12.9916     43.97     43.83    -27.26     24.00
   13.0018     44.42     43.91    -26.89     24.00
   13.0119     44.01     43.99    -27.38     24.00
   13.0221     42.57     44.07    -28.90     24.00
   13.0323     43.30     44.15    -28.25     24.00
   13.0424     43.98     44.23    -27.65     24.00
   13.0526     44.22     44.31    -27.49     24.00
   13.0627     44.01     44.39    -27.78     24.00
   13.0729     45.02     44.47    -26.85     24.00
   13.0831     44.23     44.55    -27.72     24.00
   13.0932     44.93     44.63    -27.11     24.00
   13.1034     45.57     44.71    -26.55     24.00
   13.1136     44.27     44.79    -27.93     24.00
   13.1237     44.46     44.88    -27.82     24.00
   13.1339     45.36     44.96    -27.00     24.00
   13.1441     44.93     45.04    -27.52     24.00
   13.1542     44.59     45.12    -27.94     24.00
   13.1644     44.55     45.21    -28.06     24.00
   13.1746     45.74     45.29    -26.96     24.00
   13.1847     45.64     45.37    -27.14     24.00
   13.1949     44.95     45.46    -27.91     24.00
   13.2051     44.33     45.54    -28.62     24.00
   13.2152     46.23     45.63    -26.80     24.00
   13.2254     44.33     45.71    -28.79     24.00
   13.2355     46.55     45.80    -26.65     24.00
   13.2457     46.03     45.88    -27.26     24.00
   13.2559     45.64     45.97    -27.73     24.00
   13.2660     45.62     46.05    -27.84     24.00
   13.2762     45.95     46.14    -27.60     24.00
   13.2864     44.60     46.23    -29.03     24.00
   13.2965     45.73     46.31    -27.99     24.00
   13.3067     46.80     46.40    -27.01     24.00
   13.3169     45.67     46.49    -28.22     24.00
   13.3270     46.96     46.57    -27.02     24.00
   13.3372     44.66     46.66    -29.41     24.00
   13.3474     45.85     46.75    -28.31     24.00
   13.3575     46.52     46.84    -27.72     24.00
   13.3677     46.94     46.93    -27.39     24.00
   13.3778     46.57     47.01    -27.85     24.00
   13.3880     46.66     47.10    -27.85     24.00
   13.3982     47.47     47.19    -27.13     24.00
   13.4083     46.19     47.28    -28.50     24.00
   13.4185     45.35     47.37    -29.43     24.00
   13.4287     46.43     47.46    -28.44     24.00
   13.4388     47.25     47.55    -27.71     24.00
   13.4490     46.48     47.64    -28.57     24.00
   13.4592     47.12     47.73    -28.02     24.00
   13.4693     46.45     47.82    -28.78     24.00
   13.4795     46.72     47.91    -28.60     24.00
   13.4897     47.63     48.01    -27.78     24.00
   13.4998     47.69     48.10    -27.81     24.00
   13.5100     47.42     48.19    -28.17     24.00
   13.5201     48.02     48.28    -27.67     24.00
   13.5303     47.30     48.37    -28.48     24.00
   13.5405     48.18     48.47    -27.69     24.00
   13.5506     47.94     48.56    -28.02     24.00
   13.5608     47.90     48.65    -28.16     24.00
   13.5710     48.05     48.75    -28.10     24.00
   13.5811     48.62     48.84    -27.62     24.00
   13.5913     48.63     48.93    -27.71     24.00
   13.6015     49.68     49.03    -26.75     24.00
   13.6116     47.82     49.12    -28.71     24.00
   13.6218     48.31     49.22    -28.31     24.00
   13.6320     48.66     49.31    -28.06     24.00
   13.6421     48.17     49.41    -28.64     24.00
   13.6523     48.80     49.50    -28.11     24.00
   13.6625     48.59     49.60    -28.41     24.00
   13.6726     48.47     49.69    -28.63     24.00
   13.6828     48.62     49.79    -28.58     24.00
   13.6929     49.43     49.88    -27.86     24.00
   13.7031     49.92     49.98    -27.47     24.00
   13.7133     49.00     50.08    -28.49     24.00
   13.7234     48.80     50.18    -28.78     24.00
   13.7336     48.97     50.27    -28.71     24.00
   13.7438     49.03     50.37    -28.75     24.00
   13.7539     49.48     50.47    -28.39     24.00
   13.7641     49.15     50.57    -28.82     24.00
   13.7743     49.77     50.67    -28.30     24.00
   13.7844     49.48     50.76    -28.69     24.00
   13.7946     50.77     50.86    -27.50     24.00
   13.8048     50.70     50.96    -27.67     24.00
   13.8149     50.05     51.06    -28.42     24.00
   13.8251     50.87     51.16    -27.70     24.00
   13.8352     50.24     51.26    -28.43     24.00
   13.8454     50.46     51.36    -28.31     24.00
   13.8556     50.95     51.46    -27.92     24.00
   13.8657     50.18     51.56    -28.79     24.00
   13.8759     51.23     51.66    -27.84     24.00
   13.8861     51.07     51.77    -28.10     24.00
   13.8962     50.45     51.87    -28.82     24.00
   13.9064     50.06     51.97    -29.31     24.00
   13.9166     51.39     52.07    -28.09     24.00
   13.9267     51.01     52.17    -28.57     24.00
   13.9369     50.90     52.28    -28.78     24.00
   13.9471     50.67     52.38    -29.11     24.00
   13.9572     51.60     52.48    -28.29     24.00
   13.9674     51.74     52.58    -28.25     24.00
   13.9776     51.13     52.69    -28.96     24.00
   13.9877     52.96     52.79    -27.24     24.00
   13.9979     51.40     52.90    -28.90     24.00
   14.0080     51.60     53.00    -28.80     24.00
   14.0182     52.21     53.10    -28.30     24.00
   14.0284     52.38     53.21    -28.23     24.00
   14.0385     52.53     53.31    -28.19     24.00
   14.0487     52.68     53.42    -28.14     24.00
   14.0589     51.98     53.52    -28.95     24.00
   14.0690     53.12     53.63    -27.92     24.00
   14.0792     52.32     53.74    -28.82     24.00
   14.0894     52.43     53.84    -28.82     24.00
   14.0995     52.54     53.95    -28.81     24.00
   14.1097     53.72     54.05    -27.74     24.00
   14.1199     52.34     54.16    -29.23     24.00
   14.1300     53.90     54.27    -27.77     24.00
   14.1402     53.56     54.38    -28.22     24.00
   14.1503     52.92     54.48    -28.97     24.00
   14.1605     54.93     54.59    -27.07     24.00
   14.1707     52.99     54.70    -29.12     24.00
   14.1808     53.82     54.81    -28.39     24.00
   14.1910     53.79     54.92    -28.53     24.00
   14.2012     52.57     55.03    -29.86     24.00
   14.2113     54.46     55.13    -28.08     24.00
   14.2215     54.98     55.24    -27.67     24.00
   14.2317     54.74     55.35    -28.02     24.00
   14.2418     54.88     55.46    -27.99     24.00
   14.2520     54.30     55.57    -28.68     24.00
   14.2622     54.64     55.68    -28.45     24.00
   14.2723     54.40     55.79    -28.80     24.00
   14.2825     54.41     55.91    -28.90     24.00
   14.2927     55.59     56.02    -27.83     24.00
   14.3028     55.21     56.13    -28.32     24.00
   14.3130     54.84     56.24    -28.81     24.00
   14.3231     54.30     56.35    -29.46     24.00
   14.3333     56.36     56.46    -27.51     24.00
   14.3435     55.77     56.58    -28.21     24.00
   14.3536     54.98     56.69    -29.11     24.00
   14.3638     55.55     56.80    -28.66     24.00
   14.3740     57.29     56.91    -27.03     24.00
   14.3841     55.85     57.03    -28.58     24.00
   14.3943     56.54     57.14    -28.01     24.00
   14.4045     55.93     57.25    -28.73     24.00
   14.4146     56.87     57.37    -27.90     24.00
   14.4248     55.51     57.48    -29.38     24.00
   14.4350     56.66     57.60    -28.34     24.00
   14.4451     55.54     57.71    -29.58     24.00
   14.4553     56.81     57.83    -28.42     24.00
   14.4654     56.99     57.94    -28.36     24.00
   14.4756     57.04     58.06    -28.42     24.00
   14.4858     58.15     58.17    -27.43     24.00
   14.4959     57.71     58.29    -27.98     24.00
   14.5061     58.26     58.40    -27.55     24.00
   14.5163     57.30     58.52    -28.63     24.00
   14.5264     59.20     58.64    -26.84     24.00
   14.5366     57.58     58.75    -28.58     24.00
   14.5468     57.54     58.87    -28.74     24.00
   14.5569     57.34     58.99    -29.05     24.00
   14.5671     59.00     59.11    -27.51     24.00
   14.5773     58.67     59.22    -27.96     24.00
   14.5874     58.06     59.34    -28.69     24.00
   14.5976     57.32     59.46    -29.55     24.00
   14.6078     59.64     59.58    -27.35     24.00
   14.6179     58.76     59.70    -28.34     24.00
   14.6281     58.94     59.82    -28.28     24.00
   14.6382     59.51     59.94    -27.83     24.00
   14.6484     59.22     60.06    -28.24     24.00
   14.6586     60.16     60.18    -27.42     24.00
   14.6687     59.46     60.29    -28.24     24.00
   14.6789     58.96     60.42    -28.86     24.00
   14.6891     58.82     60.54    -29.12     24.00
   14.6992     60.31     60.66    -27.75     24.00
   14.7094     60.02     60.78    -28.16     24.00
   14.7196     60.15     60.90    -28.16     24.00
   14.7297     59.27     61.02    -29.16     24.00
   14.7399     59.47     61.14    -29.08     24.00
   14.7501     60.23     61.27    -28.44     24.00
   14.7602     59.32     61.39    -29.47     24.00
   14.7704     62.14     61.51    -26.78     24.00
   14.7805     60.65     61.63    -28.39     24.00
   14.7907     59.72     61.76    -29.44     24.00
   14.8009     62.77     61.88    -26.52     24.00
   14.8110     62.35     62.00    -27.06     24.00
   14.8212     60.77     62.13    -28.76     24.00
   14.8314     62.63     62.25    -27.03     24.00
   14.8415     63.28     62.37    -26.50     24.00
   14.8517     61.98     62.50    -27.93     24.00
   14.8619     61.17     62.63    -28.86     24.00
   14.8720     61.60     62.75    -28.56     24.00
   14.8822     62.77     62.88    -27.51     24.00
   14.8924     61.03     63.00    -29.38     24.00
   14.9025     62.79     63.13    -27.74     24.00
   14.9127     62.64     63.25    -28.02     24.00
   14.9229     62.23     63.38    -28.56     24.00
   14.9330     62.88     63.51    -28.03     24.00
   14.9432     61.91     63.64    -29.13     24.00
   14.9533     62.71     63.76    -28.46     24.00
   14.9635     64.29     63.89    -27.01     24.00
   14.9737     63.35     64.02    -28.08     24.00
   14.9838     64.07     64.15    -27.48     24.00
   14.9940     64.10     64.28    -27.58     24.00
   15.0042     63.18     64.41    -28.63     24.00
   15.0143     65.14     64.54    -26.80     24.00
   15.0245     63.87     64.67    -28.20     24.00
   15.0347     63.58     64.80    -28.62     24.00
   15.0448     63.61     64.93    -28.72     24.00
   15.0550     64.04     65.06    -28.42     24.00
   15.0652     63.26     65.19    -29.34     24.00
   15.0753     64.38     65.32    -28.35     24.00
   15.0855     64.59     65.45    -28.27     24.00
   15.0956     65.29     65.58    -27.70     24.00
   15.1058     63.60     65.72    -29.52     24.00
   15.1160     65.62     65.85    -27.64     24.00
   15.1261     64.97     65.98    -28.42     24.00
   15.1363     64.64     66.12    -28.88     24.00
   15.1465     66.28     66.25    -27.38     24.00
   15.1566     65.86     66.39    -27.93     24.00
   15.1668     66.39     66.52    -27.54     24.00
   15.1770     66.01     66.66    -28.05     24.00
   15.1871     65.20     66.79    -29.00     24.00
   15.1973     67.15     66.93    -27.18     24.00
   15.2075     65.48     67.06    -28.99     24.00
   15.2176     66.43     67.20    -28.18     24.00
   15.2278     67.57     67.34    -27.17     24.00
   15.2380     67.88     67.48    -27.00     24.00
   15.2481     65.96     67.61    -29.06     24.00
   15.2583     66.88     67.75    -28.28     24.00
   15.2684     66.16     67.89    -29.14     24.00
   15.2786     67.60     68.03    -27.84     24.00
   15.2888     68.43     68.17    -27.15     24.00
   15.2989     67.98     68.31    -27.74     24.00
   15.3091     68.42     68.45    -27.44     24.00
   15.3193     67.15     68.60    -28.85     24.00
   15.3294     68.30     68.74    -27.84     24.00
   15.3396     67.93     68.88    -28.36     24.00
   15.3498     66.99     69.02    -29.44     24.00
   15.3599     70.05     69.17    -26.52     24.00
   15.3701     69.19     69.31    -27.53     24.00
   15.3803     68.27     69.46    -28.59     24.00
   15.3904     68.48     69.60    -28.53     24.00
   15.4006     69.04     69.75    -28.11     24.00
   15.4107     69.56     69.89    -27.74     24.00
   15.4209     69.42     70.04    -28.03     24.00
   15.4311     70.32     70.19    -27.27     24.00
   15.4412     70.68     70.34    -27.06     24.00
   15.4514     69.34     70.49    -28.55     24.00
   15.4616     70.90     70.64    -27.14     24.00
   15.4717     70.16     70.78    -28.03     24.00
   15.4819     69.28     70.94    -29.06     24.00
   15.4921     70.51     71.09    -27.98     24.00
   15.5022     70.36     71.24    -28.29     24.00
   15.5124     71.08     71.39    -27.72     24.00
   15.5226     71.25     71.55    -27.70     24.00
   15.5327     71.30     71.70    -27.81     24.00
   15.5429     70.96     71.85    -28.30     24.00
   15.5530     71.32     72.01    -28.10     24.00
   15.5632     71.74     72.17    -27.83     24.00
   15.5734     71.19     72.32    -28.54     24.00
   15.5835     71.63     72.48    -28.26     24.00
   15.5937     71.46     72.64    -28.59     24.00
   15.6039     72.58     72.80    -27.63     24.00
   15.6140     72.59     72.96    -27.77     24.00
   15.6242     72.53     73.12    -28.00     24.00
   15.6344     73.68     73.28    -27.01     24.00
   15.6445     73.90     73.44    -26.95     24.00
   15.6547     73.66     73.61    -27.35     24.00
   15.6649     74.01     73.77    -27.17     24.00
   15.6750     72.27     73.93    -29.07     24.00
   15.6852     74.02     74.10    -27.49     24.00
   15.6954     73.78     74.27    -27.89     24.00
   15.7055     74.01     74.43    -27.83     24.00
   15.7157     73.74     74.60    -28.27     24.00
   15.7258     73.63     74.77    -28.55     24.00
   15.7360     75.82     74.94    -26.53     24.00
   15.7462     75.47     75.11    -27.05     24.00
   15.7563     73.13     75.28    -29.56     24.00
   15.7665     74.04     75.46    -28.82     24.00
   15.7767     75.05     75.63    -27.99     24.00
   15.7868     75.62     75.81    -27.59     24.00
   15.7970     75.24     75.98    -28.15     24.00
   15.8072     75.16     76.16    -28.40     24.00
   15.8173     76.22     76.33    -27.52     24.00
   15.8275     75.56     76.51    -28.36     24.00
   15.8377     76.55     76.69    -27.55     24.00
   15.8478     77.03     76.87    -27.25     24.00
   15.8580     75.92     77.05    -28.54     24.00
   15.8681     76.63     77.24    -28.01     24.00
   15.8783     77.32     77.42    -27.51     24.00
   15.8885     76.18     77.60    -28.83     24.00
   15.8986     78.04     77.79    -27.15     24.00
   15.9088     78.94     77.97    -26.44     24.00
   15.9190     78.82     78.16    -26.75     24.00
   15.9291     77.73     78.35    -28.03     24.00
   15.9393     76.91     78.54    -29.04     24.00
   15.9495     77.98     78.73    -28.16     24.00
   15.9596     78.05     78.92    -28.28     24.00
   15.9698     78.66     79.11    -27.86     24.00
   15.9800     79.06     79.31    -27.65     24.00
   15.9901     80.19     79.50    -26.72     24.00
   16.0003     78.96     79.70    -28.14     24.00
   16.0105     78.48     79.89    -28.82     24.00
   16.0206     78.95     80.09    -28.54     24.00
   16.0308     80.34     80.29    -27.35     24.00
   16.0409     80.05     80.48    -27.84     24.00
   16.0511     79.63     80.69    -28.46     24.00
   16.0613     80.21     80.89    -28.08     24.00
   16.0714     81.63     81.09    -26.86     24.00
   16.0816     80.23     81.29    -28.47     24.00
   16.0918     80.68     81.50    -28.22     24.00
   16.1019     81.63     81.70    -27.48     24.00
   16.1121     82.14     81.91    -27.17     24.00
   16.1223     81.23     82.11    -28.29     24.00
   16.1324     80.55     82.32    -29.18     24.00
   16.1426     81.02     82.53    -28.92     24.00
   16.1528     81.32     82.74    -28.83     24.00
   16.1629     81.54     82.95    -28.82     24.00
   16.1731     83.35     83.16    -27.22     24.00
   16.1832     81.65     83.37    -29.13     24.00
   16.1934     82.85     83.59    -28.14     24.00
   16.2036     82.35     83.80    -28.86     24.00
   16.2137     83.48     84.01    -27.94     24.00
   16.2239     83.46     84.23    -28.18     24.00
   16.2341     83.59     84.45    -28.26     24.00
   16.2442     83.74     84.66    -28.33     24.00
   16.2544     82.98     84.88    -29.31     24.00
   16.2646     85.31     85.10    -27.20     24.00
   16.2747     85.16     85.32    -27.57     24.00
   16.2849     85.05     85.54    -27.90     24.00
   16.2951     84.49     85.76    -28.68     24.00
   16.3052     84.26     85.98    -29.13     24.00
   16.3154     84.57     86.20    -29.04     24.00
   16.3256     83.93     86.43    -29.90     24.00
   16.3357     85.48     86.65    -28.58     24.00
   16.3459     84.97     86.87    -29.31     24.00
   16.3560     86.19     87.10    -28.31     24.00
   16.3662     85.55     87.32    -29.18     24.00
   16.3764     84.73     87.55    -30.22     24.00
   16.3865     86.42     87.77    -28.76     24.00
   16.3967     87.62     88.00    -27.78     24.00
   16.4069     87.06     88.23    -28.57     24.00
   16.4170     88.32     88.45    -27.54     24.00
   16.4272     88.51     88.68    -27.57     24.00
   16.4374     87.40     88.91    -28.91     24.00
   16.4475     88.60     89.13    -27.94     24.00
   16.4577     88.29     89.36    -28.48     24.00
   16.4679     87.99     89.59    -29.01     24.00
   16.4780     89.63     89.82    -27.59     24.00
   16.4882     88.37     90.04    -29.08     24.00
   16.4983     89.28     90.27    -28.40     24.00
   16.5085     89.65     90.50    -28.26     24.00
   16.5187     86.85     90.73    -31.28     24.00
   16.5288     89.55     90.96    -28.81     24.00
   16.5390     89.23     91.18    -29.36     24.00
   16.5492     89.55     91.41    -29.27     24.00
   16.5593     90.05     91.64    -28.99     24.00
   16.5695     90.06     91.87    -29.21     24.00
   16.5797     91.05     92.09    -28.45     24.00
   16.5898     89.96     92.32    -29.76     24.00
   16.6000     89.26     92.55    -30.69     24.00
   16.6102     90.27     92.77    -29.91     24.00
   16.6203     91.29     93.00    -29.11     24.00
   16.6305     92.20     93.22    -28.43     24.00
   16.6407     91.85     93.45    -29.00     24.00
   16.6508     91.37     93.67    -29.71     24.00
   16.6610     92.27     93.89    -29.03     24.00
   16.6711     92.16     94.11    -29.36     24.00
   16.6813     91.51     94.34    -30.23     24.00
   16.6915     93.31     94.56    -28.65     24.00
   16.7016     92.93     94.78    -29.25     24.00
   16.7118     92.59     95.00    -29.81     24.00
   16.7220     94.12     95.21    -28.50     24.00
   16.7321     93.14     95.43    -29.70     24.00
   16.7423     93.09     95.65    -29.96     24.00
   16.7525     94.40     95.86    -28.87     24.00
   16.7626     93.55     96.07    -29.93     24.00
   16.7728     93.59     96.29    -30.10     24.00
   16.7830     95.30     96.50    -28.61     24.00
   16.7931     96.79     96.71    -27.32     24.00
   16.8033     96.09     96.92    -28.23     24.00
   16.8134     95.43     97.12    -29.10     24.00
   16.8236     95.96     97.33    -28.78     24.00
   16.8338     94.55     97.54    -30.39     24.00
   16.8439     97.60     97.74    -27.54     24.00
   16.8541     95.99     97.94    -29.35     24.00
   16.8643     97.37     98.14    -28.17     24.00
   16.8744     97.90     98.34    -27.84     24.00
   16.8846     96.16     98.53    -29.78     24.00
   16.8948     97.74     98.73    -28.39     24.00
   16.9049     97.87     98.92    -28.45     24.00
   16.9151     97.79     99.11    -28.73     24.00
   16.9253     97.93     99.30    -28.78     24.00
   16.9354     96.09     99.49    -30.80     24.00
   16.9456     97.71     99.67    -29.37     24.00
   16.9558     98.09     99.85    -29.17     24.00
   16.9659     97.57    100.03    -29.87     24.00
   16.9761     99.09    100.21    -28.53     24.00
   16.9862     97.95    100.39    -29.85     24.00
   16.9964     99.55    100.57    -28.42     24.00
   17.0066     99.63    100.74    -28.52     24.00
   17.0167     99.91    100.91    -28.41     24.00
   17.0269     99.69    101.08    -28.79     24.00
   17.0371     99.77    101.25    -28.88     24.00
   17.0472     99.57    101.41    -29.24     24.00
   17.0574     98.82    101.57    -30.16     24.00
   17.0676    100.29    101.73    -28.85     24.00
   17.0777     98.57    101.89    -30.72     24.00
   17.0879    101.07    102.05    -28.38     24.00
   17.0981    101.29    102.20    -28.32     24.00
   17.1082    101.01    102.35    -28.75     24.00
   17.1184    102.91    102.50    -27.00     24.00
   17.1285    100.93    102.65    -29.12     24.00
   17.1387    101.45    102.79    -28.75     24.00
   17.1489    104.23    102.93    -26.11     24.00
   17.1590    101.87    103.07    -28.61     24.00
   17.1692    102.65    103.21    -27.97     24.00
   17.1794    102.24    103.35    -28.52     24.00
   17.1895    102.24    103.49    -28.65     24.00
   17.1997    101.96    103.62    -29.07     24.00
   17.2099    102.26    103.75    -28.90     24.00
   17.2200    101.26    103.88    -30.03     24.00
   17.2302    103.05    104.01    -28.37     24.00
   17.2404    103.23    104.14    -28.31     24.00
   17.2505    102.85    104.26    -28.82     24.00
   17.2607    104.44    104.38    -27.35     24.00
   17.2709    104.95    104.51    -26.96     24.00
   17.2810    103.90    104.63    -28.13     24.00
   17.2912    103.93    104.75    -28.22     24.00
   17.3013    105.04    104.86    -27.23     24.00
   17.3115    105.57    104.98    -26.82     24.00
   17.3217    104.66    105.10    -27.85     24.00
   17.3318    105.98    105.22    -26.64     24.00
   17.3420    104.91    105.33    -27.83     24.00
   17.3522    106.50    105.45    -26.35     24.00
   17.3623    105.61    105.56    -27.36     24.00
   17.3725    105.77    105.68    -27.31     24.00
   17.3827    106.14    105.79    -27.06     24.00
   17.3928    107.79    105.91    -25.52     24.00
   17.4030    107.69    106.03    -25.74     24.00
   17.4132    107.90    106.14    -25.65     24.00
   17.4233    106.67    106.26    -27.00     24.00
   17.4335    106.63    106.38    -27.16     24.00
   17.4436    109.79    106.50    -24.12     24.00
   17.4538    106.05    106.62    -27.98     24.00
   17.4640    108.46    106.75    -25.69     24.00
   17.4741    108.73    106.88    -25.55     24.00
   17.4843    109.40    107.01    -25.01     24.00
   17.4945    108.71    107.14    -25.84     24.00
   17.5046    111.54    107.28    -23.14     24.00
   17.5148    109.95    107.42    -24.87     24.00
   17.5250    110.21    107.56    -24.76     24.00
   17.5351    110.65    107.71    -24.47     24.00
   17.5453    112.43    107.87    -22.84     24.00
   17.5555    112.28    108.03    -23.15     24.00
   17.5656    112.76    108.19    -22.84     24.00
   17.5758    112.71    108.37    -23.06     24.00
   17.5859    113.18    108.54    -22.77     24.00
   17.5961    113.57    108.73    -22.57     24.00
   17.6063    114.76    108.93    -21.58     24.00
   17.6164    112.97    109.14    -23.57     24.00
   17.6266    116.15    109.35    -20.61     24.00
   17.6368    115.26    109.58    -21.73     24.00
   17.6469    115.34    109.82    -21.88     24.00
   17.6571    115.47    110.07    -22.00     24.00
   17.6673    117.17    110.33    -20.57     24.00
   17.6774    115.86    110.61    -22.15     24.00
   17.6876    116.03    110.90    -22.27     24.00
   17.6978    117.35    111.21    -21.26     24.00
   17.7079    118.79    111.53    -20.14     24.00
   17.7181    117.99    111.87    -21.29     24.00
   17.7283    118.62    112.23    -21.02     24.00
   17.7384    116.77    112.61    -23.24     24.00
   17.7486    117.67    113.01    -22.74     24.00
   17.7587    120.70    113.43    -20.13     24.00
   17.7689    121.09    113.87    -20.19     24.00
   17.7791    121.19    114.34    -20.56     24.00
   17.7892    121.96    114.83    -20.28     24.00
   17.7994    121.61    115.35    -21.15     24.00
   17.8096    121.63    115.90    -21.68     24.00
   17.8197    124.46    116.47    -19.42     24.00
   17.8299    122.74    117.08    -21.75     24.00
   17.8401    124.49    117.72    -20.64     24.00
   17.8502    124.80    118.39    -20.99     24.00
   17.8604    125.78    119.10    -20.72     24.00
   17.8706    125.79    119.84    -21.45     24.00
   17.8807    127.23    120.61    -20.79     24.00
   17.8909    128.00    121.43    -20.83     24.00
   17.9010    129.33    122.28    -20.35     24.00
   17.9112    128.62    123.18    -21.96     24.00
   17.9214    129.28    124.12    -22.24     24.00
   17.9315    130.76    125.09    -21.74     24.00
   17.9417    132.71    126.12    -20.81     24.00
   17.9519    132.63    127.19    -21.97     24.00
   17.9620    133.23    128.30    -22.48     24.00
   17.9722    133.96    129.47    -22.92     24.00
   17.9824    136.23    130.69    -21.86     24.00
   17.9925    135.29    131.94    -24.06     24.00
   18.0027    137.74    133.26    -22.93     24.00
   18.0129    138.59    134.63    -23.45     24.00
   18.0230    137.70    136.04    -25.75     24.00
   18.0332    139.96    137.52    -24.96     24.00
   18.0434    141.64    139.05    -24.81     24.00
   18.0535    144.11    140.61    -23.91     24.00
   18.0637    146.01    142.25    -23.65     24.00
   18.0738    145.54    143.93    -25.79     24.00
   18.0840    145.82    145.68    -27.26     24.00
   18.0942    148.85    147.48    -26.04     24.00
   18.1043    149.90    149.32    -26.83     24.00
   18.1145    150.45    151.23    -28.19     24.00
   18.1247    153.61    153.20    -26.99     24.00
   18.1348    153.75    155.20    -28.85     24.00
   18.1450    155.09    157.27    -29.59     24.00
   18.1552    157.60    159.40    -29.20     24.00
   18.1653    158.26    161.55    -30.70     24.00
   18.1755    159.88    163.77    -31.30     24.00
   18.1857    162.67    166.05    -30.78     24.00
   18.1958    161.86    168.34    -33.89     24.00
   18.2060    163.43    170.71    -34.68     24.00
   18.2161    166.96    173.09    -33.54     24.00
   18.2263    169.01    175.54    -33.93     24.00
   18.2365    169.72    178.02    -35.71     24.00
   18.2466    175.70    180.52    -32.22     24.00
   18.2568    176.24    183.07    -34.24     24.00
   18.2670    176.93    185.65    -36.13     24.00
   18.2771    182.17    188.24    -33.47     24.00
   18.2873    183.68    190.87    -34.59     24.00
   18.2975    185.03    193.52    -35.90     24.00
   18.3076    188.55    196.16    -35.02     24.00
   18.3178    189.86    198.84    -36.39     24.00
   18.3280    192.46    201.53    -36.48     24.00
   18.3381    197.98    204.20    -33.62     24.00
   18.3483    200.09    206.89    -34.20     24.00
   18.3585    201.83    209.57    -35.15     24.00
   18.3686    206.46    212.22    -33.17     24.00
   18.3788    208.70    214.88    -33.59     24.00
   18.3889    209.86    217.49    -35.04     24.00
   18.3991    215.84    220.11    -31.67     24.00
   18.4093    215.77    222.69    -34.33     24.00
   18.4194    217.83    225.21    -34.79     24.00
   18.4296    223.89    227.71    -31.23     24.00
   18.4398    225.85    230.17    -31.72     24.00
   18.4499    228.90    232.55    -31.05     24.00
   18.4601    233.23    234.89    -29.06     24.00
   18.4703    234.36    237.16    -30.21     24.00
   18.4804    234.58    239.34    -32.17     24.00
   18.4906    242.44    241.47    -26.43     24.00
   18.5008    243.47    243.51    -27.44     24.00
   18.5109    247.03    245.44    -25.82     24.00
   18.5211    250.39    247.30    -24.31     24.00
   18.5312    250.23    249.03    -26.21     24.00
   18.5414    254.05    250.68    -24.04     24.00
   18.5516    254.12    252.21    -25.50     24.00
   18.5617    257.68    253.62    -23.34     24.00
   18.5719    259.25    254.91    -23.07     24.00
   18.5821    263.80    256.08    -19.69     24.00
   18.5922    263.12    257.11    -21.39     24.00
   18.6024    263.81    258.01    -21.61     24.00
   18.6126    267.18    258.78    -19.00     24.00
   18.6227    269.63    259.39    -17.17     24.00
   18.6329    269.05    259.87    -18.23     24.00
   18.6431    271.76    260.21    -15.86     24.00
   18.6532    269.99    260.40    -17.82     24.00
   18.6634    271.79    260.44    -16.06     24.00
   18.6736    270.62    260.34    -17.13     24.00
   18.6837    269.68    260.10    -17.82     24.00
   18.6939    269.55    259.70    -17.56     24.00
   18.7040    267.50    259.17    -19.08     24.00
   18.7142    266.90    258.50    -19.00     24.00
   18.7244    266.27    257.68    -18.82     24.00
   18.7345    264.96    256.74    -19.19     24.00
   18.7447    265.15    255.66    -17.92     24.00
   18.7549    260.32    254.46    -21.54     24.00
   18.7650    260.80    253.14    -19.75     24.00
   18.7752    260.57    251.69    -18.53     24.00
   18.7854    257.88    250.13    -19.66     24.00
   18.7955    254.55    248.48    -21.34     24.00
   18.8057    251.52    246.71    -22.60     24.00
   18.8159    247.58    244.85    -24.67     24.00
   18.8260    246.50    242.91    -23.82     24.00
   18.8362    243.31    240.87    -24.97     24.00
   18.8463    238.98    238.78    -27.20     24.00
   18.8565    235.51    236.59    -28.48     24.00
   18.8667    232.40    234.33    -29.34     24.00
   18.8768    230.93    232.03    -28.51     24.00
   18.8870    226.65    229.66    -30.42     24.00
   18.8972    225.73    227.24    -28.92     24.00
   18.9073    221.58    224.81    -30.63     24.00
   18.9175    218.79    222.31    -30.92     24.00
   18.9277    215.51    219.77    -31.67     24.00
   18.9378    211.96    217.24    -32.69     24.00
   18.9480    211.26    214.66    -30.81     24.00
   18.9582    206.90    212.07    -32.58     24.00
   18.9683    199.83    209.49    -37.07     24.00
   18.9785    198.46    206.88    -35.83     24.00
   18.9887    197.76    204.27    -33.91     24.00
   18.9988    193.63    201.69    -35.46     24.00
   19.0090    193.09    199.09    -33.40     24.00
   19.0191    187.65    196.52    -36.28     24.00
   19.0293    184.82    193.95    -36.53     24.00
   19.0395    183.85    191.40    -34.95     24.00
   19.0496    180.80    188.89    -35.49     24.00
   19.0598    178.59    186.38    -35.20     24.00
   19.0700    177.12    183.91    -34.20     24.00
   19.0801    173.91    181.49    -34.99     24.00
   19.0903    173.40    179.08    -33.09     24.00
   19.1005    172.02    176.72    -32.10     24.00
   19.1106    166.76    174.41    -35.06     24.00
   19.1208    165.48    172.12    -34.05     24.00
   19.1310    164.77    169.88    -32.52     24.00
   19.1411    161.99    167.71    -33.12     24.00
   19.1513    160.63    165.56    -32.34     24.00
   19.1614    159.11    163.49    -31.78     24.00
   19.1716    157.50    161.44    -31.35     24.00
   19.1818    156.88    159.45    -29.97     24.00
   19.1919    154.91    157.52    -30.02     24.00
   19.2021    154.91    155.64    -28.13     24.00
   19.2123    150.67    153.81    -30.54     24.00
   19.2224    151.72    152.05    -27.73     24.00
   19.2326    150.49    150.33    -27.24     24.00
   19.2428    149.32    148.66    -26.75     24.00
   19.2529    146.54    147.07    -27.93     24.00
   19.2631    146.02    145.51    -26.90     24.00
   19.2733    144.39    144.01    -27.03     24.00
   19.2834    141.58    142.58    -28.41     24.00
   19.2936    143.62    141.20    -24.98     24.00
   19.3038    141.77    139.86    -25.50     24.00
   19.3139    141.79    138.60    -24.21     24.00
   19.3241    141.03    137.37    -23.75     24.00
   19.3342    137.38    136.21    -26.23     24.00
   19.3444    139.43    135.09    -23.06     24.00
   19.3546    138.15    134.02    -23.27     24.00
   19.3647    137.27    133.01    -23.14     24.00
   19.3749    135.95    132.03    -23.49     24.00
   19.3851    135.78    131.11    -22.74     24.00
   19.3952    134.13    130.24    -23.52     24.00
   19.4054    135.59    129.41    -21.23     24.00
   19.4156    133.17    128.63    -22.86     24.00
   19.4257    133.09    127.89    -22.21     24.00
   19.4359    132.33    127.19    -22.27     24.00
   19.4461    133.83    126.54    -20.11     24.00
   19.4562    131.98    125.92    -21.35     24.00
   19.4664    133.17    125.35    -19.58     24.00
   19.4765    132.45    124.81    -19.77     24.00
   19.4867    128.93    124.31    -22.78     24.00
   19.4969    130.10    123.84    -21.14     24.00
   19.5070    129.05    123.41    -21.77     24.00
   19.5172    128.44    123.01    -21.98     24.00
   19.5274    128.43    122.64    -21.62     24.00
   19.5375    129.84    122.31    -19.88     24.00
   19.5477    127.43    122.00    -21.98     24.00
   19.5579    128.49    121.73    -20.64     24.00
   19.5680    127.25    121.48    -21.64     24.00
   19.5782    128.62    121.26    -20.05     24.00
   19.5884    127.40    121.06    -21.07     24.00
   19.5985    125.15    120.90    -23.15     24.00
   19.6087    125.87    120.75    -22.29     24.00
   19.6188    126.22    120.63    -21.82     24.00
   19.6290    126.21    120.53    -21.73     24.00
   19.6392    126.97    120.46    -20.89     24.00
   19.6493    125.81    120.40    -22.00     24.00
   19.6595    125.76    120.37    -22.01     24.00
   19.6697    124.61    120.35    -23.15     24.00
   19.6798    125.42    120.36    -22.35     24.00
   19.6900    125.32    120.38    -22.47     24.00
   19.7002    123.74    120.43    -24.09     24.00
   19.7103    123.86    120.48    -24.03     24.00
   19.7205    124.85    120.56    -23.12     24.00
   19.7307    123.14    120.65    -24.92     24.00
   19.7408    125.05    120.76    -23.12     24.00
   19.7510    124.31    120.88    -23.98     24.00
   19.7612    125.31    121.02    -23.12     24.00
   19.7713    124.23    121.18    -24.35     24.00
   19.7815    124.07    121.34    -24.68     24.00
   19.7916    124.47    121.52    -24.46     24.00
   19.8018    125.02    121.72    -24.10     24.00
   19.8120    123.90    121.93    -25.43     24.00
   19.8221    124.37    122.14    -25.18     24.00
   19.8323    124.08    122.38    -25.70     24.00
   19.8425    124.84    122.62    -25.19     24.00
   19.8526    122.71    122.87    -27.57     24.00
   19.8628    124.29    123.14    -26.26     24.00
   19.8730    124.77    123.42    -26.05     24.00
   19.8831    123.00    123.70    -28.11     24.00
   19.8933    124.38    124.00    -27.03     24.00
   19.9035    125.34    124.31    -26.38     24.00
   19.9136    125.04    124.63    -26.99     24.00
   19.9238    125.24    124.95    -27.12     24.00
   19.9339    124.68    125.29    -28.01     24.00
   19.9441    125.30    125.63    -27.74     24.00
   19.9543    127.90    125.98    -25.49     24.00
   19.9644    125.79    126.34    -27.96     24.00
   19.9746    125.37    126.71    -28.75     24.00
   19.9848    126.68    127.09    -27.81     24.00
   19.9949    128.05    127.47    -26.82     24.00
   20.0051    127.35    127.85    -27.91     24.00
   20.0153    127.63    128.25    -28.03     24.00
   20.0254    128.99    128.65    -27.06     24.00
   20.0356    126.05    129.05    -30.41     24.00
   20.0458    127.97    129.47    -28.90     24.00
   20.0559    128.25    129.88    -29.03     24.00
   20.0661    127.78    130.30    -29.93     24.00
   20.0763    129.21    130.72    -28.92     24.00
   20.0864    127.98    131.15    -30.57     24.00
   20.0966    126.87    131.58    -32.11     24.00
   20.1067    130.26    132.00    -29.15     24.00
   20.1169    128.55    132.44    -31.30     24.00
   20.1271    129.91    132.87    -30.37     24.00
   20.1372    130.10    133.31    -30.61     24.00
   20.1474    130.39    133.74    -30.76     24.00
   20.1576    130.41    134.18    -31.18     24.00
   20.1677    132.48    134.61    -29.54     24.00
   20.1779    130.27    135.05    -32.18     24.00
   20.1881    132.10    135.48    -30.78     24.00
   20.1982    134.02    135.90    -29.29     24.00
   20.2084    133.71    136.33    -30.03     24.00
   20.2186    131.57    136.75    -32.59     24.00
   20.2287    135.12    137.17    -29.45     24.00
   20.2389    134.26    137.58    -30.73     24.00
   20.2490    133.62    137.99    -31.77     24.00
   20.2592    135.02    138.39    -30.77     24.00
   20.2694    135.46    138.78    -30.73     24.00
   20.2795    135.27    139.17    -31.30     24.00
   20.2897    136.49    139.55    -30.46     24.00
   20.2999    136.60    139.92    -30.72     24.00
   20.3100    135.49    140.27    -32.19     24.00
   20.3202    137.54    140.62    -30.49     24.00
   20.3304    139.26    140.96    -29.11     24.00
   20.3405    137.30    141.29    -31.39     24.00
   20.3507    139.79    141.60    -29.22     24.00
   20.3609    139.18    141.90    -30.13     24.00
   20.3710    140.10    142.19    -29.50     24.00
   20.3812    141.14    142.47    -28.73     24.00
   20.3914    142.30    142.72    -27.83     24.00
   20.4015    139.62    142.97    -30.75     24.00
   20.4117    142.38    143.19    -28.22     24.00
   20.4218    142.84    143.40    -27.97     24.00
   20.4320    140.98    143.60    -30.02     24.00
   20.4422    143.36    143.77    -27.82     24.00
   20.4523    143.82    143.93    -27.52     24.00
   20.4625    144.49    144.07    -26.98     24.00
   20.4727    143.11    144.19    -28.48     24.00
   20.4828    145.55    144.29    -26.14     24.00
   20.4930    142.62    144.37    -29.15     24.00
   20.5032    145.15    144.43    -26.68     24.00
   20.5133    144.50    144.47    -27.37     24.00
   20.5235    146.35    144.49    -25.54     24.00
   20.5337    147.08    144.48    -24.81     24.00
   20.5438    146.02    144.46    -25.85     24.00
   20.5540    145.23    144.41    -26.59     24.00
   20.5641    147.32    144.35    -24.44     24.00
   20.5743    148.90    144.26    -22.77     24.00
   20.5845    145.81    144.15    -25.75     24.00
   20.5946    147.40    144.03    -24.03     24.00
   20.6048    146.32    143.88    -24.96     24.00
   20.6150    145.21    143.71    -25.90     24.00
   20.6251    145.93    143.52    -24.99     24.00
   20.6353    146.49    143.31    -24.22     24.00
   20.6455    144.65    143.08    -25.83     24.00
   20.6556    146.79    142.83    -23.45     24.00
   20.6658    147.69    142.56    -22.28     24.00
   20.6760    144.07    142.28    -25.61     24.00
   20.6861    145.70    141.97    -23.68     24.00
   20.6963    144.71    141.65    -24.35     24.00
   20.7065    143.81    141.32    -24.91     24.00
   20.7166    143.35    140.96    -25.02     24.00
   20.7268    144.12    140.59    -23.88     24.00
   20.7369    141.91    140.21    -25.71     24.00
   20.7471    143.13    139.81    -24.09     24.00
   20.7573    143.25    139.40    -23.56     24.00
   20.7674    141.18    138.98    -25.21     24.00
   20.7776    141.16    138.54    -24.79     24.00
   20.7878    141.24    138.10    -24.26     24.00
   20.7979    138.59    137.64    -26.46     24.00
   20.8081    140.04    137.17    -24.54     24.00
   20.8183    137.05    136.69    -27.05     24.00
   20.8284    139.01    136.21    -24.61     24.00
   20.8386    139.48    135.72    -23.64     24.00
   20.8488    137.59    135.21    -25.03     24.00
   20.8589    135.07    134.71    -27.04     24.00
   20.8691    137.45    134.19    -24.15     24.00
   20.8792    134.79    133.68    -26.30     24.00
   20.8894    132.60    133.15    -27.96     24.00
   20.8996    135.57    132.63    -24.46     24.00
   20.9097    132.21    132.10    -27.30     24.00
   20.9199    131.19    131.57    -27.78     24.00
   20.9301    132.11    131.03    -26.33     24.00
   20.9402    129.89    130.50    -28.02     24.00
   20.9504    129.07    129.96    -28.30     24.00
   20.9606    131.85    129.43    -24.98     24.00
   20.9707    129.58    128.90    -26.72     24.00
   20.9809    127.71    128.36    -28.06     24.00
   20.9911    128.20    127.83    -27.04     24.00
   21.0012    127.90    127.31    -26.81     24.00
   21.0114    125.98    126.78    -28.20     24.00
   21.0216    124.66    126.26    -29.00     24.00
   21.0317    124.68    125.74    -28.47     24.00
   21.0419    125.18    125.23    -27.45     24.00
   21.0520    123.97    124.72    -28.16     24.00
   21.0622    124.32    124.22    -27.30     24.00
   21.0724    124.65    123.72    -26.48     24.00
   21.0825    121.90    123.24    -28.74     24.00
   21.0927    120.33    122.75    -29.83     24.00
   21.1029    119.69    122.28    -29.99     24.00
   21.1130    119.88    121.81    -29.34     24.00
   21.1232    120.78    121.35    -27.98     24.00
   21.1334    119.62    120.90    -28.69     24.00
   21.1435    120.73    120.47    -27.14     24.00
   21.1537    118.87    120.04    -28.57     24.00
   21.1639    117.51    119.61    -29.51     24.00
   21.1740    117.95    119.21    -28.66     24.00
   21.1842    116.29    118.81    -29.92     24.00
   21.1943    115.24    118.42    -30.59     24.00
   21.2045    116.24    118.05    -29.21     24.00
   21.2147    116.45    117.68    -28.64     24.00
   21.2248    115.03    117.33    -29.71     24.00
   21.2350    115.43    116.99    -28.97     24.00
   21.2452    115.50    116.66    -28.57     24.00
   21.2553    113.74    116.35    -30.02     24.00
   21.2655    114.35    116.05    -29.10     24.00
   21.2757    113.51    115.76    -29.66     24.00
   21.2858    112.64    115.49    -30.26     24.00
   21.2960    112.26    115.23    -30.38     24.00
   21.3062    114.74    114.98    -27.65     24.00
   21.3163    114.76    114.76    -27.40     24.00
   21.3265    113.74    114.54    -28.21     24.00
   21.3366    113.40    114.34    -28.35     24.00
   21.3468    112.07    114.16    -29.49     24.00
   21.3570    112.77    113.99    -28.62     24.00
   21.3671    112.76    113.83    -28.48     24.00
   21.3773    110.79    113.70    -30.31     24.00
   21.3875    111.90    113.58    -29.08     24.00
   21.3976    112.71    113.47    -28.17     24.00
   21.4078    111.76    113.38    -29.03     24.00
   21.4180    112.14    113.31    -28.58     24.00
   21.4281    113.05    113.26    -27.61     24.00
   21.4383    111.16    113.22    -29.46     24.00
   21.4485    110.97    113.20    -29.63     24.00
   21.4586    111.24    113.19    -29.36     24.00
   21.4688    110.84    113.21    -29.77     24.00
   21.4790    113.16    113.24    -27.48     24.00
   21.4891    112.34    113.29    -28.35     24.00
   21.4993    110.90    113.35    -29.86     24.00
   21.5094    110.68    113.44    -30.16     24.00
   21.5196    112.53    113.54    -28.42     24.00
   21.5298    111.55    113.66    -29.52     24.00
   21.5399    113.37    113.80    -27.84     24.00
   21.5501    112.62    113.96    -28.75     24.00
   21.5603    112.70    114.14    -28.84     24.00
   21.5704    113.62    114.33    -28.12     24.00
   21.5806    112.76    114.54    -29.19     24.00
   21.5908    111.50    114.78    -30.68     24.00
   21.6009    114.00    115.03    -28.43     24.00
   21.6111    114.46    115.30    -28.24     24.00
   21.6213    114.01    115.58    -28.98     24.00
   21.6314    112.59    115.89    -30.71     24.00
   21.6416    112.54    116.22    -31.08     24.00
   21.6517    114.20    116.56    -29.76     24.00
   21.6619    115.35    116.92    -28.98     24.00
   21.6721    116.63    117.30    -28.08     24.00
   21.6822    115.36    117.70    -29.75     24.00
   21.6924    116.93    118.12    -28.60     24.00
   21.7026    116.60    118.56    -29.37     24.00
   21.7127    116.65    119.01    -29.77     24.00
   21.7229    118.95    119.49    -27.95     24.00
   21.7331    118.99    119.98    -28.40     24.00
   21.7432    118.75    120.49    -29.15     24.00
   21.7534    120.92    121.02    -27.51     24.00
   21.7636    121.47    121.57    -27.50     24.00
   21.7737    119.12    122.13    -30.41     24.00
   21.7839    122.32    122.71    -27.80     24.00
   21.7941    124.33    123.31    -26.39     24.00
   21.8042    122.57    123.92    -28.76     24.00
   21.8144    125.29    124.55    -26.67     24.00
   21.8245    125.81    125.20    -26.79     24.00
   21.8347    125.58    125.86    -27.69     24.00
   21.8449    126.96    126.54    -26.99     24.00
   21.8550    126.75    127.23    -27.89     24.00
   21.8652    127.18    127.95    -28.17     24.00
   21.8754    128.34    128.67    -27.74     24.00
   21.8855    127.55    129.40    -29.26     24.00
   21.8957    129.47    130.16    -28.09     24.00
   21.9059    131.74    130.92    -26.59     24.00
   21.9160    131.82    131.69    -27.28     24.00
   21.9262    131.74    132.48    -28.15     24.00
   21.9364    133.42    133.29    -27.27     24.00
   21.9465    133.95    134.09    -27.55     24.00
   21.9567    134.65    134.92    -27.67     24.00
   21.9668    137.88    135.74    -25.27     24.00
   21.9770    137.63    136.58    -26.36     24.00
   21.9872    136.75    137.43    -28.09     24.00
   21.9973    138.71    138.28    -26.98     24.00
   22.0075    140.73    139.15    -25.82     24.00
   22.0177    139.25    140.02    -28.17     24.00
   22.0278    140.19    140.88    -28.10     24.00
   22.0380    142.04    141.76    -27.13     24.00
   22.0482    140.82    142.65    -29.23     24.00
   22.0583    145.15    143.52    -25.78     24.00
   22.0685    145.02    144.41    -26.80     24.00
   22.0787    144.27    145.30    -28.44     24.00
   22.0888    144.62    146.18    -28.97     24.00
   22.0990    148.45    147.07    -26.02     24.00
   22.1092    147.96    147.95    -27.40     24.00
   22.1193    148.43    148.83    -27.80     24.00
   22.1295    151.48    149.70    -25.63     24.00
   22.1396    149.91    150.57    -28.06     24.00
   22.1498    150.15    151.44    -28.69     24.00
   22.1600    152.94    152.29    -26.76     24.00
   22.1701    152.01    153.14    -28.53     24.00
   22.1803    154.66    153.98    -26.72     24.00
   22.1905    155.69    154.81    -26.52     24.00
   22.2006    157.12    155.62    -25.90     24.00
   22.2108    156.23    156.42    -27.60     24.00
   22.2210    159.70    157.21    -24.92     24.00
   22.2311    157.01    157.98    -28.38     24.00
   22.2413    160.75    158.74    -25.39     24.00
   22.2515    162.35    159.48    -24.53     24.00
   22.2616    159.99    160.19    -27.61     24.00
   22.2718    162.66    160.89    -25.64     24.00
   22.2819    163.94    161.56    -25.03     24.00
   22.2921    162.95    162.22    -26.67     24.00
   22.3023    166.06    162.85    -24.19     24.00
   22.3124    166.96    163.45    -23.89     24.00
   22.3226    165.60    164.03    -25.83     24.00
   22.3328    166.30    164.58    -25.69     24.00
   22.3429    170.16    165.10    -22.34     24.00
   22.3531    168.20    165.59    -24.80     24.00
   22.3633    169.22    166.05    -24.24     24.00
   22.3734    169.34    166.48    -24.54     24.00
   22.3836    168.29    166.87    -25.99     24.00
   22.3938    171.30    167.23    -23.34     24.00
   22.4039    168.91    167.56    -26.05     24.00
   22.4141    171.11    167.85    -24.14     24.00
   22.4243    172.63    168.10    -22.88     24.00
   22.4344    172.34    168.32    -23.38     24.00
   22.4446    169.60    168.50    -26.30     24.00
   22.4547    170.56    168.63    -25.48     24.00
   22.4649    172.44    168.73    -23.70     24.00
   22.4751    170.80    168.79    -25.40     24.00
   22.4852    172.49    168.81    -23.73     24.00
   22.4954    170.23    168.79    -25.97     24.00
   22.5056    171.15    168.73    -24.99     24.00
   22.5157    170.11    168.63    -25.92     24.00
   22.5259    172.00    168.49    -23.89     24.00
   22.5361    166.96    168.30    -28.75     24.00
   22.5462    171.23    168.08    -24.25     24.00
   22.5564    168.57    167.81    -26.65     24.00
   22.5666    166.21    167.50    -28.70     24.00
   22.5767    167.86    167.16    -26.71     24.00
   22.5869    166.40    166.77    -27.78     24.00
   22.5970    164.83    166.35    -28.93     24.00
   22.6072    166.85    165.89    -26.44     24.00
   22.6174    163.71    165.38    -29.08     24.00
   22.6275    162.57    164.85    -29.69     24.00
   22.6377    165.31    164.27    -26.37     24.00
   22.6479    162.85    163.66    -28.22     24.00
   22.6580    162.46    163.02    -27.97     24.00
   22.6682    161.68    162.34    -28.07     24.00
   22.6784    161.40    161.63    -27.64     24.00
   22.6885    158.10    160.89    -30.20     24.00
   22.6987    160.93    160.12    -26.59     24.00
   22.7089    156.39    159.31    -30.33     24.00
   22.7190    156.09    158.49    -29.81     24.00
   22.7292    157.77    157.63    -27.27     24.00
   22.7394    154.19    156.74    -29.96     24.00
   22.7495    152.60    155.84    -30.65     24.00
   22.7597    152.84    154.91    -29.47     24.00
   22.7698    151.66    153.96    -29.71     24.00
   22.7800    149.51    152.98    -30.88     24.00
   22.7902    150.95    151.98    -28.44     24.00
   22.8003    147.68    150.98    -30.70     24.00
   22.8105    146.93    149.94    -30.42     24.00
   22.8207    144.97    148.89    -31.33     24.00
   22.8308    145.95    147.84    -29.29     24.00
   22.8410    140.81    146.76    -33.35     24.00
   22.8512    143.04    145.67    -30.03     24.00
   22.8613    141.60    144.57    -30.38     24.00
   22.8715    139.90    143.46    -30.96     24.00
   22.8817    141.03    142.33    -28.71     24.00
   22.8918    141.07    141.21    -27.55     24.00
   22.9020    138.65    140.08    -28.83     24.00
   22.9121    135.85    138.94    -30.50     24.00
   22.9223    135.88    137.79    -29.32     24.00
   22.9325    132.52    136.64    -31.52     24.00
   22.9426    132.92    135.49    -29.98     24.00
   22.9528    131.40    134.33    -30.34     24.00
   22.9630    130.26    133.17    -30.32     24.00
   22.9731    129.82    132.03    -29.61     24.00
   22.9833    129.10    130.87    -29.17     24.00
   22.9935    129.46    129.71    -27.65     24.00
   23.0036    126.89    128.57    -29.08     24.00
   23.0138    125.49    127.41    -29.33     24.00
   23.0240    124.53    126.27    -29.14     24.00
   23.0341    122.27    125.14    -30.27     24.00
   23.0443    121.20    124.00    -30.21     24.00
   23.0545    121.77    122.87    -28.51     24.00
   23.0646    120.32    121.76    -28.84     24.00
   23.0748    118.01    120.64    -30.04     24.00
   23.0849    118.97    119.55    -27.98     24.00
   23.0951    118.26    118.45    -27.59     24.00
   23.1053    115.91    117.36    -28.86     24.00
   23.1154    115.80    116.29    -27.90     24.00
   23.1256    115.10    115.23    -27.53     24.00
   23.1358    113.45    114.17    -28.13     24.00
   23.1459    111.34    113.13    -29.20     24.00
   23.1561    112.76    112.10    -26.75     24.00
   23.1663    110.20    111.08    -28.29     24.00
   23.1764    108.99    110.08    -28.50     24.00
   23.1866    109.72    109.09    -26.77     24.00
   23.1968    108.30    108.11    -27.21     24.00
   23.2069    108.39    107.15    -26.17     24.00
   23.2171    107.51    106.20    -26.09     24.00
   23.2272    105.26    105.27    -27.41     24.00
   23.2374    104.32    104.34    -27.43     24.00
   23.2476    104.85    103.43    -25.99     24.00
   23.2577    104.12    102.55    -25.83     24.00
   23.2679    103.59    101.67    -25.48     24.00
   23.2781    102.48    100.80    -25.73     24.00
   23.2882    102.01     99.96    -25.35     24.00
   23.2984    102.41     99.12    -24.12     24.00
   23.3086    100.16     98.30    -25.55     24.00
   23.3187     99.06     97.51    -25.85     24.00
   23.3289    100.23     96.72    -23.90     24.00
   23.3391     98.02     95.95    -25.33     24.00
   23.3492     96.24     95.20    -26.36     24.00
   23.3594     96.15     94.45    -25.71     24.00
   23.3695     97.32     93.73    -23.82     24.00
   23.3797     95.05     93.02    -25.38     24.00
   23.3899     95.90     92.32    -23.83     24.00
   23.4000     94.80     91.65    -24.25     24.00
   23.4102     92.83     90.98    -25.56     24.00
   23.4204     93.52     90.33    -24.21     24.00
   23.4305     93.01     89.69    -24.09     24.00
   23.4407     91.59     89.07    -24.89     24.00
   23.4509     91.44     88.46    -24.43     24.00
   23.4610     90.63     87.87    -24.65     24.00
   23.4712     90.04     87.29    -24.65     24.00
   23.4814     89.95     86.72    -24.18     24.00
   23.4915     88.59     86.17    -24.99     24.00
   23.5017     88.80     85.63    -24.23     24.00
   23.5119     88.91     85.10    -23.60     24.00
   23.5220     88.20     84.59    -23.79     24.00
   23.5322     87.57     84.09    -23.92     24.00
   23.5423     86.82     83.60    -24.18     24.00
   23.5525     86.00     83.12    -24.53     24.00
   23.5627     84.07     82.65    -25.99     24.00
   23.5728     84.42     82.20    -25.19     24.00
   23.5830     83.73     81.76    -25.43     24.00
   23.5932     84.83     81.32    -23.90     24.00
   23.6033     82.97     80.90    -25.34     24.00
   23.6135     83.35     80.49    -24.55     24.00
   23.6237     81.91     80.09    -25.58     24.00
   23.6338     82.87     79.70    -24.24     24.00
   23.6440     81.98     79.32    -24.74     24.00
   23.6542     80.50     78.94    -25.85     24.00
   23.6643     80.71     78.58    -25.28     24.00
   23.6745     81.48     78.23    -24.16     24.00
   23.6846     79.83     77.89    -25.46     24.00
   23.6948     80.07     77.55    -24.88     24.00
   23.7050     79.84     77.22    -24.78     24.00
   23.7151     77.60     76.90    -26.71     24.00
   23.7253     77.06     76.59    -26.93     24.00
   23.7355     76.65     76.28    -27.04     24.00
   23.7456     77.54     75.98    -25.85     24.00
   23.7558     77.17     75.69    -25.93     24.00
   23.7660     76.20     75.40    -26.61     24.00
   23.7761     75.82     75.13    -26.71     24.00
   23.7863     76.04     74.86    -26.22     24.00
   23.7965     75.49     74.59    -26.50     24.00
   23.8066     76.45     74.33    -25.29     24.00
   23.8168     75.33     74.07    -26.15     24.00
   23.8270     75.48     73.82    -25.75     24.00
   23.8371     74.43     73.58    -26.56     24.00
   23.8473     73.38     73.34    -27.37     24.00
   23.8574     73.16     73.11    -27.36     24.00
   23.8676     73.11     72.88    -27.18     24.00
   23.8778     73.36     72.66    -26.70     24.00
   23.8879     72.84     72.44    -27.00     24.00
   23.8981     72.38     72.22    -27.25     24.00
   23.9083     72.07     72.01    -27.34     24.00
   23.9184     72.09     71.80    -27.12     24.00
   23.9286     72.28     71.60    -26.72     24.00
   23.9388     72.13     71.39    -26.67     24.00
   23.9489     70.87     71.20    -27.73     24.00
   23.9591     69.91     71.00    -28.50     24.00
   23.9693     70.43     70.81    -27.79     24.00
   23.9794     69.77     70.62    -28.26     24.00
   23.9896     71.08     70.44    -26.76     24.00
   23.9997     70.52     70.26    -27.14     24.00
   24.0099     70.78     70.08    -26.70     24.00
   24.0201     69.98     69.90    -27.32     24.00
   24.0302     69.38     69.73    -27.75     24.00
   24.0404     68.48     69.55    -28.48     24.00
   24.0506     67.34     69.38    -29.45     24.00
   24.0607     68.28     69.22    -28.34     24.00
   24.0709     68.95     69.05    -27.50     24.00
   24.0811     67.38     68.88    -28.91     24.00
   24.0912     68.76     68.72    -27.37     24.00
   24.1014     67.52     68.56    -28.45     24.00
   24.1116     66.90     68.40    -28.91     24.00
   24.1217     67.04     68.25    -28.61     24.00
   24.1319     67.06     68.09    -28.44     24.00
   24.1421     66.80     67.94    -28.55     24.00
   24.1522     67.07     67.79    -28.12     24.00
   24.1624     65.49     67.64    -29.55     24.00
   24.1725     66.38     67.49    -28.51     24.00
   24.1827     65.94     67.34    -28.81     24.00
   24.1929     64.91     67.19    -29.69     24.00
   24.2030     65.54     67.05    -28.92     24.00
   24.2132     66.29     66.90    -28.02     24.00
   24.2234     65.33     66.76    -28.84     24.00
   24.2335     64.66     66.62    -29.37     24.00
   24.2437     64.90     66.48    -28.99     24.00
   24.2539     65.54     66.34    -28.20     24.00
   24.2640     64.37     66.20    -29.24     24.00
   24.2742     63.26     66.06    -30.21     24.00
   24.2844     64.65     65.93    -28.68     24.00
   24.2945     63.55     65.79    -29.65     24.00
   24.3047     63.12     65.65    -29.94     24.00
   24.3148     64.70     65.52    -28.23     24.00
   24.3250     63.80     65.39    -28.99     24.00
   24.3352     64.84     65.25    -27.82     24.00
   24.3453     63.15     65.12    -29.38     24.00
   24.3555     63.39     64.99    -29.01     24.00
   24.3657     62.92     64.86    -29.35     24.00
   24.3758     62.76     64.73    -29.38     24.00
   24.3860     63.24     64.60    -28.77     24.00
   24.3962     62.65     64.47    -29.23     24.00
   24.4063     62.84     64.35    -28.91     24.00
   24.4165     62.30     64.22    -29.32     24.00
   24.4267     63.00     64.09    -28.50     24.00
   24.4368     62.02     63.97    -29.35     24.00
   24.4470     62.87     63.84    -28.38     24.00
   24.4572     62.59     63.72    -28.53     24.00
   24.4673     62.74     63.59    -28.26     24.00
   24.4775     62.76     63.47    -28.12     24.00
   24.4876     61.52     63.35    -29.23     24.00
   24.4978     60.70     63.22    -29.93     24.00
   24.5080     62.18     63.10    -28.33     24.00
   24.5181     60.37     62.98    -30.02     24.00
   24.5283     61.35     62.86    -28.92     24.00
   24.5385     60.04     62.74    -30.11     24.00
   24.5486     60.39     62.62    -29.64     24.00
   24.5588     60.67     62.50    -29.24     24.00
   24.5690     60.62     62.38    -29.17     24.00
   24.5791     60.83     62.26    -28.84     24.00
   24.5893     61.15     62.15    -28.40     24.00
   24.5995     59.50     62.03    -29.94     24.00
   24.6096     60.98     61.91    -28.34     24.00
   24.6198     60.34     61.80    -28.86     24.00
   24.6299     59.85     61.68    -29.24     24.00
   24.6401     59.95     61.57    -29.02     24.00
   24.6503     59.46     61.45    -29.40     24.00
   24.6604     59.80     61.34    -28.94     24.00
   24.6706     59.32     61.22    -29.31     24.00
   24.6808     58.69     61.11    -29.83     24.00
   24.6909     60.51     61.00    -27.89     24.00
   24.7011     58.99     60.89    -29.30     24.00
   24.7113     58.01     60.77    -30.17     24.00
   24.7214     59.15     60.66    -28.92     24.00
   24.7316     59.08     60.55    -28.88     24.00
   24.7418     59.28     60.44    -28.57     24.00
   24.7519     58.10     60.33    -29.64     24.00
   24.7621     59.13     60.22    -28.50     24.00
   24.7723     59.43     60.11    -28.09     24.00
   24.7824     57.05     60.00    -30.36     24.00
   24.7926     57.79     59.89    -29.51     24.00
   24.8027     57.91     59.79    -29.28     24.00
   24.8129     58.18     59.68    -28.91     24.00
   24.8231     58.46     59.57    -28.52     24.00
   24.8332     58.08     59.47    -28.79     24.00
   24.8434     57.65     59.36    -29.12     24.00
   24.8536     57.45     59.25    -29.21     24.00
   24.8637     57.26     59.15    -29.30     24.00
   24.8739     57.70     59.05    -28.75     24.00
   24.8841     57.18     58.94    -29.17     24.00
   24.8942     57.42     58.84    -28.82     24.00
   24.9044     56.76     58.73    -29.38     24.00
   24.9146     57.91     58.63    -28.13     24.00
   24.9247     57.56     58.53    -28.38     24.00
   24.9349     57.77     58.43    -28.06     24.00
   24.9450     57.43     58.33    -28.30     24.00
   24.9552     56.59     58.22    -29.04     24.00
   24.9654     58.09     58.12    -27.44     24.00
   24.9755     56.65     58.02    -28.78     24.00
   24.9857     57.44     57.92    -27.89     24.00
   24.9959     56.88     57.83    -28.35     24.00
   25.0060     56.75     57.73    -28.38     24.00
   25.0162     57.41     57.63    -27.62     24.00
   25.0264     56.27     57.53    -28.67     24.00
   25.0365     55.70     57.43    -29.14     24.00
   25.0467     56.70     57.34    -28.04     24.00
   25.0569     57.26     57.24    -27.39     24.00
   25.0670     55.99     57.14    -28.56     24.00
   25.0772     55.64     57.05    -28.81     24.00
   25.0874     56.08     56.95    -28.28     24.00
   25.0975     55.52     56.86    -28.75     24.00
   25.1077     55.69     56.76    -28.48     24.00
   25.1178     56.27     56.67    -27.81     24.00
   25.1280     55.97     56.58    -28.01     24.00
   25.1382     56.20     56.49    -27.69     24.00
   25.1483     56.60     56.39    -27.20     24.00
   25.1585     56.32     56.30    -27.39     24.00
   25.1687     55.71     56.21    -27.91     24.00
   25.1788     55.32     56.12    -28.21     24.00
   25.1890     55.56     56.03    -27.87     24.00
   25.1992     54.90     55.94    -28.44     24.00
   25.2093     54.65     55.85    -28.61     24.00
   25.2195     55.59     55.76    -27.58     24.00
   25.2297     56.70     55.67    -26.38     24.00
   25.2398     55.79     55.58    -27.20     24.00
   25.2500     55.80     55.50    -27.10     24.00
   25.2601     54.50     55.41    -28.31     24.00
   25.2703     55.50     55.32    -27.23     24.00
   25.2805     53.70     55.24    -28.94     24.00
   25.2906     55.40     55.15    -27.16     24.00
   25.3008     54.80     55.06    -27.67     24.00
   25.3110     55.74     54.98    -26.65     24.00
   25.3211     54.65     54.90    -27.65     24.00
   25.3313     55.32     54.81    -26.90     24.00
   25.3415     56.15     54.73    -25.98     24.00
   25.3516     54.86     54.65    -27.19     24.00
   25.3618     54.54     54.56    -27.43     24.00
   25.3720     54.62     54.48    -27.27     24.00
   25.3821     54.11     54.40    -27.70     24.00
   25.3923     54.66     54.32    -27.06     24.00
   25.4024     55.18     54.24    -26.46     24.00
   25.4126     54.74     54.16    -26.82     24.00
   25.4228     54.66     54.08    -26.82     24.00
   25.4329     54.86     54.00    -26.54     24.00
   25.4431     53.89     53.92    -27.44     24.00
   25.4533     55.24     53.84    -26.01     24.00
   25.4634     53.45     53.76    -27.72     24.00
   25.4736     54.16     53.69    -26.93     24.00
   25.4838     55.10     53.61    -25.92     24.00
   25.4939     55.02     53.53    -25.92     24.00
   25.5041     54.18     53.46    -26.68     24.00
   25.5143     53.29     53.38    -27.50     24.00
   25.5244     54.88     53.31    -25.83     24.00
   25.5346     54.59     53.23    -26.05     24.00
   25.5448     54.04     53.16    -26.53     24.00
   25.5549     54.74     53.09    -25.75     24.00
   25.5651     53.45     53.01    -26.97     24.00
   25.5752     53.38     52.94    -26.97     24.00
   25.5854     53.93     52.87    -26.34     24.00
   25.5956     54.06     52.80    -26.14     24.00
   25.6057     54.86     52.73    -25.27     24.00
   25.6159     53.21     52.66    -26.85     24.00
   25.6261     54.13     52.59    -25.86     24.00
   25.6362     53.73     52.52    -26.19     24.00
   25.6464     52.84     52.45    -27.01     24.00
   25.6566     54.26     52.38    -25.52     24.00
   25.6667     54.30     52.31    -25.42     24.00
   25.6769     53.32     52.24    -26.33     24.00
   25.6871     52.05     52.18    -27.53     24.00
   25.6972     54.09     52.11    -25.43     24.00
   25.7074     54.24     52.04    -25.21     24.00
   25.7175     53.33     51.98    -26.05     24.00
   25.7277     53.02     51.91    -26.30     24.00
   25.7379     52.95     51.85    -26.30     24.00
   25.7480     53.57     51.78    -25.62     24.00
   25.7582     53.12     51.72    -26.01     24.00
   25.7684     53.43     51.66    -25.63     24.00
   25.7785     54.05     51.60    -24.95     24.00
   25.7887     53.01     51.53    -25.93     24.00
   25.7989     52.85     51.47    -26.03     24.00
   25.8090     52.91     51.41    -25.91     24.00
   25.8192     52.93     51.35    -25.83     24.00
   25.8294     53.07     51.29    -25.63     24.00
   25.8395     52.95     51.23    -25.69     24.00
   25.8497     52.43     51.17    -26.15     24.00
   25.8599     51.43     51.11    -27.09     24.00
   25.8700     52.84     51.05    -25.62     24.00
   25.8802     51.44     51.00    -26.96     24.00
   25.8903     52.13     50.94    -26.22     24.00
   25.9005     52.52     50.88    -25.77     24.00
   25.9107     53.29     50.83    -24.94     24.00
   25.9208     52.09     50.77    -26.09     24.00
   25.9310     51.46     50.72    -26.66     24.00
   25.9412     52.67     50.66    -25.40     24.00
   25.9513     51.74     50.61    -26.27     24.00
   25.9615     52.49     50.55    -25.47     24.00
   25.9717     51.32     50.50    -26.59     24.00
   25.9818     52.60     50.45    -25.25     24.00
   25.9920     50.56     50.40    -27.24     24.00
   26.0022     51.55     50.34    -26.20     24.00
   26.0123     51.51     50.29    -26.19     24.00
   26.0225     51.55     50.24    -26.10     24.00
   26.0326     51.21     50.19    -26.39     24.00
   26.0428     51.08     50.14    -26.47     24.00
   26.0530     51.95     50.09    -25.55     24.00
   26.0631     51.12     50.04    -26.33     24.00
   26.0733     51.20     50.00    -26.20     24.00
   26.0835     50.98     49.95    -26.37     24.00
   26.0936     51.24     49.90    -26.07     24.00
   26.1038     50.27     49.85    -26.99     24.00
   26.1140     50.01     49.81    -27.20     24.00
   26.1241     51.78     49.76    -25.39     24.00
   26.1343     51.27     49.72    -25.85     24.00
   26.1445     50.36     49.67    -26.72     24.00
   26.1546     50.97     49.63    -26.06     24.00
   26.1648     50.50     49.58    -26.49     24.00
   26.1750     50.27     49.54    -26.68     24.00
   26.1851     50.71     49.50    -26.19     24.00
   26.1953     50.40     49.46    -26.46     24.00
   26.2054     50.24     49.41    -26.58     24.00
   26.2156     49.90     49.37    -26.88     24.00
   26.2258     50.32     49.33    -26.42     24.00
   26.2359     50.72     49.29    -25.98     24.00
   26.2461     50.24     49.25    -26.42     24.00
   26.2563     49.29     49.21    -27.33     24.00
   26.2664     49.32     49.17    -27.26     24.00
   26.2766     49.65     49.14    -26.89     24.00
   26.2868     49.15     49.10    -27.35     24.00
   26.2969     50.15     49.06    -26.32     24.00
   26.3071     49.74     49.02    -26.69     24.00
   26.3173     49.12     48.99    -27.27     24.00
   26.3274     50.01     48.95    -26.35     24.00
   26.3376     49.70     48.92    -26.62     24.00
   26.3477     50.26     48.88    -26.03     24.00
   26.3579     48.95     48.85    -27.30     24.00
   26.3681     49.74     48.81    -26.48     24.00
   26.3782     49.59     48.78    -26.59     24.00
   26.3884     49.50     48.75    -26.65     24.00
   26.3986     48.99     48.71    -27.13     24.00
   26.4087     49.49     48.68    -26.60     24.00
   26.4189     49.45     48.65    -26.61     24.00
   26.4291     49.77     48.62    -26.25     24.00
   26.4392     49.36     48.59    -26.63     24.00
   26.4494     48.23     48.56    -27.73     24.00
   26.4596     48.73     48.53    -27.20     24.00
   26.4697     49.28     48.50    -26.62     24.00
   26.4799     48.60     48.47    -27.28     24.00
   26.4901     49.68     48.44    -26.17     24.00
   26.5002     48.39     48.41    -27.43     24.00
   26.5104     48.63     48.39    -27.16     24.00
   26.5205     48.39     48.36    -27.38     24.00
   26.5307     47.93     48.33    -27.81     24.00
   26.5409     48.41     48.31    -27.30     24.00
   26.5510     48.35     48.28    -27.34     24.00
   26.5612     49.17     48.26    -26.49     24.00
   26.5714     48.71     48.23    -26.93     24.00
   26.5815     48.46     48.21    -27.15     24.00
   26.5917     48.67     48.18    -26.92     24.00
   26.6019     47.69     48.16    -27.88     24.00
   26.6120     48.74     48.14    -26.81     24.00
   26.6222     47.82     48.12    -27.70     24.00
   26.6324     48.56     48.10    -26.94     24.00
   26.6425     48.65     48.07    -26.83     24.00
   26.6527     48.28     48.05    -27.18     24.00
   26.6628     48.83     48.03    -26.61     24.00
   26.6730     49.01     48.01    -26.41     24.00
   26.6832     47.96     47.99    -27.44     24.00
   26.6933     47.85     47.97    -27.53     24.00
   26.7035     48.92     47.96    -26.44     24.00
   26.7137     47.44     47.94    -27.90     24.00
   26.7238     48.13     47.92    -27.20     24.00
   26.7340     48.19     47.90    -27.12     24.00
   26.7442     49.23     47.89    -26.06     24.00
   26.7543     47.08     47.87    -28.20     24.00
   26.7645     48.33     47.85    -26.93     24.00
   26.7747     47.40     47.84    -27.85     24.00
   26.7848     48.41     47.82    -26.82     24.00
   26.7950     47.37     47.81    -27.85     24.00
   26.8052     48.21     47.80    -26.99     24.00
   26.8153     48.05     47.78    -27.14     24.00
   26.8255     46.24     47.77    -28.94     24.00
   26.8356     47.12     47.76    -28.04     24.00
   26.8458     47.37     47.74    -27.78     24.00
   26.8560     47.43     47.73    -27.71     24.00
   26.8661     47.24     47.72    -27.89     24.00
   26.8763     46.20     47.71    -28.92     24.00
   26.8865     47.20     47.70    -27.91     24.00
   26.8966     47.02     47.69    -28.08     24.00
   26.9068     47.63     47.68    -27.46     24.00
   26.9170     46.24     47.67    -28.84     24.00
   26.9271     47.95     47.66    -27.12     24.00
   26.9373     47.04     47.66    -28.02     24.00
   26.9475     46.79     47.65    -28.26     24.00
   26.9576     46.76     47.64    -28.29     24.00
   26.9678     47.80     47.63    -27.24     24.00
   26.9779     47.42     47.63    -27.61     24.00
   26.9881     47.31     47.62    -27.72     24.00
   26.9983     47.91     47.62    -27.11     24.00
   27.0084     46.90     47.61    -28.12     24.00
   27.0186     47.39     47.61    -27.62     24.00
   27.0288     47.40     47.60    -27.61     24.00
   27.0389     46.98     47.60    -28.03     24.00
   27.0491     46.53     47.60    -28.47     24.00
   27.0593     46.70     47.60    -28.30     24.00
   27.0694     47.03     47.60    -27.97     24.00
   27.0796     46.45     47.59    -28.55     24.00
   27.0898     47.55     47.59    -27.45     24.00
   27.0999     47.40     47.59    -27.60     24.00
   27.1101     46.38     47.59    -28.62     24.00
   27.1202     46.93     47.60    -28.07     24.00
   27.1304     48.20     47.60    -26.80     24.00
   27.1406     47.34     47.60    -27.67     24.00
   27.1507     47.45     47.60    -27.56     24.00
   27.1609     46.60     47.61    -28.41     24.00
   27.1711     47.45     47.61    -27.57     24.00
   27.1812     47.30     47.62    -27.72     24.00
   27.1914     46.67     47.62    -28.36     24.00
   27.2016     47.01     47.63    -28.03     24.00
   27.2117     47.52     47.64    -27.53     24.00
   27.2219     46.56     47.65    -28.49     24.00
   27.2321     47.18     47.66    -27.88     24.00
   27.2422     48.11     47.67    -26.96     24.00
   27.2524     47.26     47.68    -27.83     24.00
   27.2626     47.43     47.69    -27.67     24.00
   27.2727     46.38     47.70    -28.73     24.00
   27.2829     47.82     47.72    -27.31     24.00
   27.2930     47.37     47.73    -27.77     24.00
   27.3032     46.76     47.75    -28.40     24.00
   27.3134     47.07     47.77    -28.11     24.00
   27.3235     46.40     47.79    -28.79     24.00
   27.3337     46.64     47.81    -28.57     24.00
   27.3439     46.49     47.83    -28.75     24.00
   27.3540     47.16     47.85    -28.10     24.00
   27.3642     47.02     47.88    -28.26     24.00
   27.3744     47.81     47.90    -27.50     24.00
   27.3845     47.57     47.93    -27.77     24.00
   27.3947     47.65     47.96    -27.72     24.00
   27.4049     47.71     47.99    -27.69     24.00
   27.4150     48.51     48.03    -26.92     24.00
   27.4252     47.87     48.06    -27.60     24.00
   27.4353     47.09     48.10    -28.41     24.00
   27.4455     47.55     48.14    -27.99     24.00
   27.4557     46.65     48.18    -28.93     24.00
   27.4658     46.91     48.22    -28.72     24.00
   27.4760     47.61     48.27    -28.06     24.00
   27.4862     48.19     48.31    -27.53     24.00
   27.4963     48.60     48.37    -27.17     24.00
   27.5065     49.09     48.42    -26.74     24.00
   27.5167     48.38     48.48    -27.50     24.00
   27.5268     47.14     48.53    -28.80     24.00
   27.5370     48.48     48.60    -27.52     24.00
   27.5472     48.30     48.66    -27.77     24.00
   27.5573     48.87     48.73    -27.27     24.00
   27.5675     47.14     48.80    -29.07     24.00
   27.5777     48.22     48.88    -28.06     24.00
   27.5878     48.67     48.96    -27.69     24.00
   27.5980     48.24     49.04    -28.21     24.00
   27.6081     48.09     49.13    -28.44     24.00
   27.6183     48.07     49.22    -28.55     24.00
   27.6285     49.51     49.31    -27.21     24.00
   27.6386     48.92     49.41    -27.90     24.00
   27.6488     49.02     49.51    -27.90     24.00
   27.6590     49.91     49.62    -27.12     24.00
   27.6691     49.02     49.73    -28.12     24.00
   27.6793     50.00     49.85    -27.26     24.00
   27.6895     49.05     49.98    -28.33     24.00
   27.6996     49.91     50.10    -27.60     24.00
   27.7098     51.04     50.23    -26.60     24.00
   27.7200     50.59     50.37    -27.19     24.00
   27.7301     50.89     50.52    -27.03     24.00
   27.7403     49.91     50.67    -28.16     24.00
   27.7504     51.07     50.82    -27.16     24.00
   27.7606     50.96     50.98    -27.43     24.00
   27.7708     50.01     51.15    -28.54     24.00
   27.7809     51.12     51.32    -27.61     24.00
   27.7911     51.18     51.50    -27.72     24.00
   27.8013     51.53     51.68    -27.56     24.00
   27.8114     49.99     51.87    -29.29     24.00
   27.8216     51.39     52.07    -28.09     24.00
   27.8318     50.87     52.28    -28.81     24.00
   27.8419     51.64     52.49    -28.25     24.00
   27.8521     52.84     52.71    -27.27     24.00
   27.8623     52.35     52.93    -27.99     24.00
   27.8724     52.12     53.16    -28.45     24.00
   27.8826     52.61     53.40    -28.19     24.00
   27.8928     53.04     53.64    -28.01     24.00
   27.9029     54.36     53.89    -26.94     24.00
   27.9131     53.82     54.15    -27.74     24.00
   27.9232     53.98     54.42    -27.84     24.00
   27.9334     53.74     54.69    -28.35     24.00
   27.9436     54.10     54.97    -28.27     24.00
   27.9537     55.03     55.25    -27.63     24.00
   27.9639     55.60     55.54    -27.35     24.00
   27.9741     55.55     55.84    -27.70     24.00
   27.9842     56.36     56.14    -27.19     24.00
   27.9944     55.19     56.46    -28.67     24.00
   28.0046     56.55     56.77    -27.63     24.00
   28.0147     58.25     57.09    -26.25     24.00
   28.0249     57.23     57.42    -27.60     24.00
   28.0351     57.12     57.76    -28.05     24.00
   28.0452     57.90     58.10    -27.60     24.00
   28.0554     57.97     58.44    -27.88     24.00
   28.0655     57.91     58.79    -28.29     24.00
   28.0757     57.91     59.15    -28.64     24.00
   28.0859     60.10     59.51    -26.81     24.00
   28.0960     60.38     59.87    -26.89     24.00
   28.1062     60.18     60.24    -27.46     24.00
   28.1164     61.72     60.61    -26.30     24.00
   28.1265     60.88     60.98    -27.51     24.00
   28.1367     62.50     61.36    -26.27     24.00
   28.1469     62.74     61.74    -26.41     24.00
   28.1570     61.08     62.12    -28.45     24.00
   28.1672     62.66     62.51    -27.25     24.00
   28.1774     62.88     62.89    -27.42     24.00
   28.1875     64.20     63.28    -26.48     24.00
   28.1977     64.13     63.66    -26.94     24.00
   28.2079     64.75     64.05    -26.71     24.00
   28.2180     64.23     64.43    -27.61     24.00
   28.2282     64.63     64.82    -27.59     24.00
   28.2383     64.97     65.20    -27.63     24.00
   28.2485     66.44     65.58    -26.55     24.00
   28.2587     66.80     65.96    -26.57     24.00
   28.2688     67.19     66.33    -26.55     24.00
   28.2790     67.36     66.70    -26.75     24.00
   28.2892     67.98     67.07    -26.50     24.00
   28.2993     67.43     67.43    -27.41     24.00
   28.3095     68.41     67.79    -26.78     24.00
   28.3197     69.75     68.14    -25.79     24.00
   28.3298     70.24     68.48    -25.64     24.00
   28.3400     68.17     68.81    -28.05     24.00
   28.3502     69.62     69.14    -26.92     24.00
   28.3603     70.39     69.45    -26.47     24.00
   28.3705     70.10     69.76    -27.07     24.00
   28.3806     70.37     70.06    -27.09     24.00
   28.3908     70.40     70.34    -27.35     24.00
   28.4010     71.46     70.62    -26.57     24.00
   28.4111     70.79     70.88    -27.50     24.00
   28.4213     71.41     71.13    -27.13     24.00
   28.4315     71.86     71.37    -26.92     24.00
   28.4416     71.23     71.59    -27.77     24.00
   28.4518     71.57     71.80    -27.64     24.00
   28.4620     72.26     71.99    -27.14     24.00
   28.4721     71.88     72.17    -27.70     24.00
   28.4823     72.24     72.33    -27.50     24.00
   28.4925     74.63     72.48    -25.25     24.00
   28.5026     72.87     72.60    -27.14     24.00
   28.5128     73.88     72.71    -26.24     24.00
   28.5230     72.15     72.81    -28.06     24.00
   28.5331     74.12     72.88    -26.17     24.00
   28.5433     73.40     72.94    -26.94     24.00
   28.5534     73.49     72.97    -26.89     24.00
   28.5636     73.26     72.99    -27.14     24.00
   28.5738     74.20     72.99    -26.20     24.00
   28.5839     73.35     72.97    -27.03     24.00
   28.5941     72.75     72.94    -27.59     24.00
   28.6043     73.45     72.88    -26.84     24.00
   28.6144     72.61     72.81    -27.60     24.00
   28.6246     73.01     72.71    -27.11     24.00
   28.6348     72.95     72.60    -27.06     24.00
   28.6449     71.63     72.47    -28.25     24.00
   28.6551     73.03     72.33    -26.70     24.00
   28.6653     72.14     72.16    -27.43     24.00
   28.6754     70.94     71.98    -28.45     24.00
   28.6856     71.99     71.78    -27.20     24.00
   28.6957     71.09     71.57    -27.89     24.00
   28.7059     70.91     71.34    -27.84     24.00
   28.7161     70.80     71.10    -27.71     24.00
   28.7262     70.71     70.84    -27.54     24.00
   28.7364     69.71     70.57    -28.27     24.00
   28.7466     69.10     70.29    -28.59     24.00
   28.7567     69.25     69.99    -28.15     24.00
   28.7669     68.45     69.68    -28.64     24.00
   28.7771     69.24     69.36    -27.52     24.00
   28.7872     68.23     69.03    -28.21     24.00
   28.7974     67.94     68.69    -28.15     24.00
   28.8076     68.26     68.34    -27.48     24.00
   28.8177     68.37     67.98    -27.02     24.00
   28.8279     65.16     67.61    -29.86     24.00
   28.8381     66.66     67.24    -27.98     24.00
   28.8482     66.56     66.86    -27.70     24.00
   28.8584     65.01     66.47    -28.87     24.00
   28.8685     65.32     66.08    -28.16     24.00
   28.8787     64.61     65.68    -28.48     24.00
   28.8889     63.97     65.28    -28.71     24.00
   28.8990     65.52     64.87    -26.76     24.00
   28.9092     64.79     64.46    -27.08     24.00
   28.9194     62.76     64.05    -28.70     24.00
   28.9295     62.53     63.64    -28.52     24.00
   28.9397     62.57     63.22    -28.06     24.00
   28.9499     62.73     62.81    -27.48     24.00
   28.9600     61.03     62.39    -28.77     24.00
   28.9702     61.81     61.97    -27.57     24.00
   28.9804     60.60     61.56    -28.36     24.00
   28.9905     60.76     61.14    -27.79     24.00
   29.0007     60.53     60.73    -27.60     24.00
   29.0108     59.59     60.32    -28.13     24.00
   29.0210     59.44     59.91    -27.87     24.00
   29.0312     59.63     59.50    -27.27     24.00
   29.0413     57.78     59.10    -28.72     24.00
   29.0515     58.71     58.69    -27.39     24.00
   29.0617     58.47     58.29    -27.23     24.00
   29.0718     57.53     57.90    -27.78     24.00
   29.0820     58.22     57.51    -26.69     24.00
   29.0922     57.75     57.12    -26.78     24.00
   29.1023     56.66     56.74    -27.49     24.00
   29.1125     55.73     56.37    -28.04     24.00
   29.1227     56.64     55.99    -26.76     24.00
   29.1328     56.02     55.63    -27.02     24.00
   29.1430     55.84     55.27    -26.83     24.00
   29.1531     55.23     54.91    -27.09     24.00
   29.1633     54.07     54.56    -27.90     24.00
   29.1735     54.68     54.22    -26.95     24.00
   29.1836     54.43     53.88    -26.86     24.00
   29.1938     53.77     53.55    -27.19     24.00
   29.2040     53.96     53.23    -26.67     24.00
   29.2141     52.42     52.91    -27.90     24.00
   29.2243     53.39     52.60    -26.61     24.00
   29.2345     52.46     52.29    -27.24     24.00
   29.2446     52.83     51.99    -26.57     24.00
   29.2548     51.98     51.70    -27.12     24.00
   29.2650     51.65     51.41    -27.17     24.00
   29.2751     52.10     51.13    -26.44     24.00
   29.2853     51.66     50.86    -26.60     24.00
   29.2955     51.02     50.59    -26.98     24.00
   29.3056     52.13     50.33    -25.61     24.00
   29.3158     51.02     50.07    -26.46     24.00
   29.3259     50.52     49.83    -26.71     24.00
   29.3361     50.85     49.58    -26.14     24.00
   29.3463     49.66     49.35    -27.09     24.00
   29.3564     49.79     49.12    -26.74     24.00
   29.3666     49.45     48.89    -26.85     24.00
   29.3768     49.31     48.67    -26.77     24.00
   29.3869     49.26     48.46    -26.61     24.00
   29.3971     50.48     48.26    -25.18     24.00
   29.4073     48.95     48.05    -26.51     24.00
   29.4174     48.02     47.86    -27.24     24.00
   29.4276     48.15     47.67    -26.92     24.00
   29.4378     48.40     47.48    -26.49     24.00
   29.4479     47.17     47.30    -27.54     24.00
   29.4581     47.39     47.12    -27.14     24.00
   29.4682     47.32     46.95    -27.04     24.00
   29.4784     47.78     46.79    -26.41     24.00
   29.4886     46.68     46.62    -27.35     24.00
   29.4987     47.98     46.47    -25.89     24.00
   29.5089     47.20     46.31    -26.52     24.00
   29.5191     46.99     46.16    -26.58     24.00
   29.5292     45.59     46.02    -27.83     24.00
   29.5394     46.77     45.87    -26.51     24.00
   29.5496     46.38     45.74    -26.76     24.00
   29.5597     46.18     45.60    -26.83     24.00
   29.5699     46.76     45.47    -26.12     24.00
   29.5801     45.63     45.34    -27.12     24.00
   29.5902     46.01     45.22    -26.61     24.00
   29.6004     45.59     45.09    -26.91     24.00
   29.6106     44.49     44.98    -27.89     24.00
   29.6207     44.94     44.86    -27.33     24.00
   29.6309     45.04     44.75    -27.11     24.00
   29.6410     44.98     44.63    -27.06     24.00
   29.6512     44.06     44.53    -27.87     24.00
   29.6614     44.77     44.42    -27.05     24.00
   29.6715     45.72     44.32    -26.00     24.00
   29.6817     44.99     44.21    -26.63     24.00
   29.6919     45.01     44.11    -26.51     24.00
   29.7020     44.80     44.01    -26.62     24.00
   29.7122     44.38     43.92    -26.94     24.00
   29.7224     43.68     43.82    -27.55     24.00
   29.7325     43.40     43.73    -27.74     24.00
   29.7427     44.59     43.64    -26.45     24.00
   29.7529     43.60     43.55    -27.35     24.00
   29.7630     45.30     43.46    -25.57     24.00
   29.7732     43.24     43.37    -27.54     24.00
   29.7833     42.84     43.29    -27.85     24.00
   29.7935     43.48     43.20    -27.13     24.00
   29.8037     43.36     43.12    -27.16     24.00
   29.8138     42.62     43.03    -27.82     24.00
   29.8240     42.79     42.95    -27.57     24.00
   29.8342     42.79     42.87    -27.49     24.00
   29.8443     43.26     42.79    -26.94     24.00
   29.8545     43.82     42.71    -26.30     24.00
   29.8647     42.88     42.63    -27.16     24.00
   29.8748     43.10     42.55    -26.86     24.00
   29.8850     43.30     42.47    -26.58     24.00
   29.8952     42.68     42.40    -27.12     24.00
   29.9053     43.38     42.32    -26.35     24.00
   29.9155     42.79     42.25    -26.86     24.00
   29.9257     43.66     42.17    -25.92     24.00
   29.9358     43.16     42.10    -26.34     24.00
   29.9460     41.87     42.02    -27.56     24.00
   29.9561     41.74     41.95    -27.61     24.00
   29.9663     41.45     41.87    -27.83     24.00
   29.9765     42.57     41.80    -26.64     24.00
   29.9866     41.94     41.73    -27.19     24.00
   29.9968     42.55     41.66    -26.51     24.00
   30.0070     42.97     41.58    -26.02     24.00
   30.0171     42.38     41.51    -26.54     24.00
   30.0273     42.07     41.44    -26.78     24.00
   30.0375     42.54     41.37    -26.23     24.00
   30.0476     40.87     41.30    -27.83     24.00
   30.0578     42.22     41.22    -26.41     24.00
   30.0680     42.19     41.15    -26.37     24.00
   30.0781     42.37     41.08    -26.12     24.00
   30.0883     42.07     41.01    -26.35     24.00
   30.0984     41.92     40.94    -26.43     24.00
   30.1086     41.18     40.87    -27.10     24.00
   30.1188     41.08     40.80    -27.13     24.00
   30.1289     42.07     40.73    -26.07     24.00
   30.1391     41.84     40.66    -26.23     24.00
   30.1493     41.13     40.59    -26.87     24.00
   30.1594     42.25     40.52    -25.68     24.00
   30.1696     40.70     40.45    -27.16     24.00
   30.1798     41.32     40.38    -26.47     24.00
   30.1899     40.69     40.31    -27.03     24.00
   30.2001     40.97     40.24    -26.68     24.00
   30.2103     40.51     40.17    -27.07     24.00
   30.2204     41.39     40.11    -26.12     24.00
   30.2306     39.74     40.04    -27.70     24.00
   30.2408     40.55     39.97    -26.82     24.00
   30.2509     41.05     39.90    -26.25     24.00
   30.2611     40.26     39.83    -26.97     24.00
   30.2712     40.77     39.76    -26.40     24.00
   30.2814     40.04     39.69    -27.06     24.00
   30.2916     39.71     39.62    -27.32     24.00
   30.3017     39.43     39.55    -27.53     24.00
   30.3119     40.09     39.48    -26.80     24.00
   30.3221     39.92     39.42    -26.90     24.00
   30.3322     38.79     39.35    -27.96     24.00
   30.3424     39.75     39.28    -26.94     24.00
   30.3526     39.33     39.21    -27.29     24.00
   30.3627     39.21     39.14    -27.34     24.00
   30.3729     38.87     39.07    -27.61     24.00
   30.3831     38.40     39.01    -28.01     24.00
   30.3932     39.12     38.94    -27.22     24.00
   30.4034     38.74     38.87    -27.54     24.00
   30.4135     38.70     38.80    -27.51     24.00
   30.4237     39.60     38.74    -26.54     24.00
   30.4339     38.60     38.67    -27.47     24.00
   30.4440     37.90     38.60    -28.11     24.00
   30.4542     38.65     38.53    -27.29     24.00
   30.4644     37.09     38.46    -28.78     24.00
   30.4745     37.40     38.40    -28.40     24.00
   30.4847     37.87     38.33    -27.87     24.00
   30.4949     37.62     38.26    -28.05     24.00
   30.5050     36.59     38.20    -29.01     24.00
   30.5152     38.15     38.13    -27.39     24.00
   30.5254     37.49     38.06    -27.98     24.00
   30.5355     36.40     38.00    -29.00     24.00
   30.5457     37.05     37.93    -28.29     24.00
   30.5559     37.94     37.86    -27.33     24.00
   30.5660     37.44     37.80    -27.76     24.00
   30.5762     37.05     37.73    -28.09     24.00
   30.5863     37.34     37.66    -27.73     24.00
   30.5965     36.79     37.60    -28.21     24.00
   30.6067     36.93     37.53    -28.01     24.00
   30.6168     36.13     37.47    -28.74     24.00
   30.6270     36.35     37.40    -28.46     24.00
   30.6372     36.45     37.34    -28.29     24.00
   30.6473     36.25     37.27    -28.43     24.00
   30.6575     36.20     37.21    -28.41     24.00
   30.6677     36.39     37.14    -28.16     24.00
   30.6778     36.43     37.08    -28.05     24.00
   30.6880     36.72     37.01    -27.70     24.00
   30.6982     36.12     36.95    -28.23     24.00
   30.7083     36.93     36.88    -27.36     24.00
   30.7185     35.13     36.82    -29.09     24.00
   30.7286     34.85     36.75    -29.31     24.00
   30.7388     36.18     36.69    -27.92     24.00
   30.7490     35.39     36.63    -28.64     24.00
   30.7591     35.90     36.56    -28.07     24.00
   30.7693     35.40     36.50    -28.50     24.00
   30.7795     35.61     36.43    -28.23     24.00
   30.7896     34.96     36.37    -28.82     24.00
   30.7998     34.90     36.31    -28.82     24.00
   30.8100     35.05     36.25    -28.60     24.00
   30.8201     35.72     36.18    -27.87     24.00
   30.8303     34.77     36.12    -28.76     24.00
   30.8405     34.19     36.06    -29.28     24.00
   30.8506     35.35     36.00    -28.05     24.00
   30.8608     34.41     35.94    -28.93     24.00
   30.8710     34.89     35.87    -28.39     24.00
   30.8811     34.83     35.81    -28.39     24.00
   30.8913     35.30     35.75    -27.86     24.00
   30.9014     34.66     35.69    -28.44     24.00
   30.9116     34.45     35.63    -28.59     24.00
   30.9218     34.88     35.57    -28.10     24.00
   30.9319     34.80     35.51    -28.12     24.00
   30.9421     34.64     35.45    -28.21     24.00
   30.9523     34.36     35.39    -28.43     24.00
   30.9624     34.19     35.33    -28.55     24.00
   30.9726     34.99     35.27    -27.69     24.00
   30.9828     35.36     35.21    -27.26     24.00
   30.9929     35.01     35.15    -27.55     24.00
   31.0031     33.45     35.09    -29.05     24.00
   31.0133     34.45     35.03    -27.99     24.00
   31.0234     34.05     34.98    -28.33     24.00
   31.0336     33.47     34.92    -28.85     24.00
   31.0437     34.17     34.86    -28.10     24.00
   31.0539     33.92     34.80    -28.29     24.00
   31.0641     33.57     34.75    -28.58     24.00
   31.0742     33.16     34.69    -28.94     24.00
   31.0844     33.93     34.63    -28.11     24.00
   31.0946     33.74     34.58    -28.24     24.00
   31.1047     34.48     34.52    -27.45     24.00
   31.1149     33.68     34.47    -28.19     24.00
   31.1251     33.88     34.41    -27.94     24.00
   31.1352     33.34     34.35    -28.42     24.00
   31.1454     33.90     34.30    -27.81     24.00
   31.1556     32.95     34.25    -28.70     24.00
   31.1657     33.87     34.19    -27.73     24.00
   31.1759     33.45     34.14    -28.09     24.00
   31.1860     33.41     34.08    -28.08     24.00
   31.1962     34.09     34.03    -27.35     24.00
   31.2064     32.84     33.98    -28.54     24.00
   31.2165     34.26     33.93    -27.07     24.00
   31.2267     32.38     33.87    -28.90     24.00
   31.2369     33.01     33.82    -28.22     24.00
   31.2470     32.21     33.77    -28.97     24.00
   31.2572     33.91     33.72    -27.21     24.00
   31.2674     32.52     33.67    -28.55     24.00
   31.2775     32.79     33.62    -28.23     24.00
   31.2877     32.62     33.57    -28.35     24.00
   31.2979     32.61     33.52    -28.31     24.00
   31.3080     32.49     33.47    -28.38     24.00
   31.3182     33.54     33.42    -27.29     24.00
   31.3284     32.22     33.37    -28.56     24.00
   31.3385     33.33     33.32    -27.40     24.00
   31.3487     33.20     33.28    -27.48     24.00
   31.3588     33.39     33.23    -27.24     24.00
   31.3690     33.07     33.18    -27.52     24.00
   31.3792     33.21     33.13    -27.33     24.00
   31.3893     31.88     33.09    -28.62     24.00
   31.3995     32.49     33.04    -27.96     24.00
   31.4097     32.39     33.00    -28.01     24.00
   31.4198     33.59     32.95    -26.77     24.00
   31.4300     33.52     32.91    -26.80     24.00
   31.4402     32.22     32.87    -28.05     24.00
   31.4503     32.76     32.82    -27.47     24.00
   31.4605     31.96     32.78    -28.23     24.00
   31.4707     33.63     32.74    -26.51     24.00
   31.4808     33.37     32.70    -26.73     24.00
   31.4910     32.76     32.66    -27.30     24.00
   31.5011     32.79     32.61    -27.23     24.00
   31.5113     33.30     32.57    -26.68     24.00
   31.5215     32.37     32.53    -27.57     24.00
   31.5316     33.13     32.50    -26.77     24.00
   31.5418     33.24     32.46    -26.62     24.00
   31.5520     32.53     32.42    -27.30     24.00
   31.5621     32.98     32.38    -26.81     24.00
   31.5723     32.12     32.35    -27.63     24.00
   31.5825     32.27     32.31    -27.45     24.00
   31.5926     32.21     32.27    -27.47     24.00
   31.6028     32.19     32.24    -27.45     24.00
   31.6130     32.99     32.20    -26.62     24.00
   31.6231     33.40     32.17    -26.18     24.00
   31.6333     32.61     32.14    -26.93     24.00
   31.6435     32.36     32.11    -27.15     24.00
   31.6536     32.09     32.07    -27.39     24.00
   31.6638     32.31     32.04    -27.14     24.00
   31.6739     32.20     32.01    -27.22     24.00
   31.6841     32.38     31.98    -27.01     24.00
   31.6943     32.07     31.95    -27.29     24.00
   31.7044     32.05     31.92    -27.28     24.00
   31.7146     32.88     31.90    -26.42     24.00
   31.7248     31.80     31.87    -27.48     24.00
   31.7349     32.55     31.84    -26.70     24.00
   31.7451     33.55     31.82    -25.67     24.00
   31.7553     31.93     31.79    -27.27     24.00
   31.7654     32.10     31.77    -27.08     24.00
   31.7756     32.61     31.75    -26.54     24.00
   31.7858     31.80     31.72    -27.33     24.00
   31.7959     31.80     31.70    -27.31     24.00
   31.8061     31.35     31.68    -27.74     24.00
   31.8162     31.93     31.66    -27.14     24.00
   31.8264     32.29     31.64    -26.76     24.00
   31.8366     32.27     31.62    -26.76     24.00
   31.8467     32.49     31.60    -26.52     24.00
   31.8569     32.08     31.59    -26.91     24.00
   31.8671     33.45     31.57    -25.53     24.00
   31.8772     32.33     31.56    -26.63     24.00
   31.8874     32.30     31.54    -26.65     24.00
   31.8976     31.82     31.53    -27.11     24.00
   31.9077     31.59     31.52    -27.33     24.00
   31.9179     32.71     31.50    -26.20     24.00
   31.9281     33.23     31.49    -25.67     24.00
   31.9382     31.97     31.48    -26.92     24.00
   31.9484     31.97     31.47    -26.91     24.00
   31.9586     32.65     31.46    -26.22     24.00
   31.9687     31.52     31.46    -27.34     24.00
   31.9789     32.65     31.45    -26.21     24.00
   31.9890     32.01     31.45    -26.84     24.00
   31.9992     31.50     31.44    -27.35     24.00
   32.0094     32.06     31.44    -26.78     24.00
   32.0195     32.70     31.43    -26.14     24.00
   32.0297     32.70     31.43    -26.14     24.00
   32.0399     33.68     31.43    -25.16     24.00
   32.0500     32.57     31.43    -26.27     24.00
   32.0602     31.51     31.43    -27.33     24.00
   32.0704     32.48     31.43    -26.36     24.00
   32.0805     32.10     31.44    -26.74     24.00
   32.0907     31.78     31.44    -27.06     24.00
   32.1009     32.13     31.44    -26.72     24.00
   32.1110     32.72     31.45    -26.13     24.00
   32.1212     32.30     31.45    -26.56     24.00
   32.1313     32.66     31.46    -26.21     24.00
   32.1415     32.93     31.47    -25.95     24.00
   32.1517     32.17     31.48    -26.71     24.00
   32.1618     32.69     31.49    -26.20     24.00
   32.1720     32.27     31.50    -26.64     24.00
   32.1822     32.52     31.51    -26.40     24.00
   32.1923     32.98     31.52    -25.95     24.00
   32.2025     32.39     31.54    -26.55     24.00
   32.2127     32.60     31.55    -26.36     24.00
   32.2228     32.27     31.57    -26.70     24.00
   32.2330     31.92     31.58    -27.07     24.00
   32.2432     32.87     31.60    -26.14     24.00
   32.2533     32.39     31.62    -26.63     24.00
   32.2635     32.85     31.64    -26.19     24.00
   32.2737     32.85     31.66    -26.21     24.00
   32.2838     32.41     31.68    -26.67     24.00
   32.2940     33.39     31.70    -25.71     24.00
   32.3041     32.73     31.72    -26.39     24.00
   32.3143     33.32     31.74    -25.83     24.00
   32.3245     33.00     31.76    -26.17     24.00
   32.3346     32.99     31.79    -26.20     24.00
   32.3448     33.38     31.81    -25.84     24.00
   32.3550     33.58     31.84    -25.67     24.00
   32.3651     32.74     31.87    -26.53     24.00
   32.3753     32.78     31.89    -26.52     24.00
   32.3855     33.34     31.92    -25.99     24.00
   32.3956     32.43     31.95    -26.92     24.00
   32.4058     32.64     31.98    -26.74     24.00
   32.4160     33.32     32.01    -26.09     24.00
   32.4261     31.83     32.04    -27.61     24.00
   32.4363     32.99     32.07    -26.48     24.00
   32.4464     33.74     32.10    -25.76     24.00
   32.4566     32.85     32.13    -26.69     24.00
   32.4668     32.80     32.16    -26.77     24.00
   32.4769     33.16     32.19    -26.44     24.00
   32.4871     33.41     32.23    -26.22     24.00
   32.4973     32.90     32.26    -26.77     24.00
   32.5074     33.33     32.30    -26.37     24.00
   32.5176     32.91     32.33    -26.83     24.00
   32.5278     33.44     32.36    -26.33     24.00
   32.5379     33.65     32.40    -26.15     24.00
   32.5481     32.96     32.43    -26.88     24.00
   32.5583     33.71     32.47    -26.16     24.00
   32.5684     33.48     32.50    -26.43     24.00
   32.5786     33.01     32.54    -26.94     24.00
   32.5888     32.71     32.58    -27.27     24.00
   32.5989     33.03     32.61    -26.99     24.00
   32.6091     33.44     32.65    -26.61     24.00
   32.6192     33.03     32.68    -27.06     24.00
   32.6294     32.60     32.72    -27.53     24.00
   32.6396     32.34     32.76    -27.82     24.00
   32.6497     32.68     32.79    -27.52     24.00
   32.6599     33.03     32.83    -27.20     24.00
   32.6701     33.73     32.86    -26.54     24.00
   32.6802     32.70     32.90    -27.60     24.00
   32.6904     32.43     32.93    -27.91     24.00
   32.7006     32.74     32.97    -27.63     24.00
   32.7107     32.80     33.00    -27.61     24.00
   32.7209     33.68     33.04    -26.76     24.00
   32.7311     32.84     33.07    -27.64     24.00
   32.7412     32.78     33.10    -27.73     24.00
   32.7514     32.67     33.14    -27.87     24.00
   32.7615     32.58     33.17    -27.99     24.00
   32.7717     32.60     33.20    -28.01     24.00
   32.7819     34.04     33.23    -26.60     24.00
   32.7920     32.78     33.26    -27.89     24.00
   32.8022     32.57     33.29    -28.13     24.00
   32.8124     32.86     33.32    -27.87     24.00
   32.8225     32.39     33.35    -28.37     24.00
   32.8327     32.24     33.38    -28.54     24.00
   32.8429     33.77     33.40    -27.04     24.00
   32.8530     32.40     33.43    -28.44     24.00
   32.8632     32.27     33.45    -28.59     24.00
   32.8734     33.16     33.48    -27.72     24.00
   32.8835     32.51     33.50    -28.40     24.00
   32.8937     32.63     33.52    -28.30     24.00
   32.9039     33.00     33.54    -27.95     24.00
   32.9140     32.93     33.56    -28.04     24.00
   32.9242     32.64     33.58    -28.35     24.00
   32.9343     33.91     33.60    -27.09     24.00
   32.9445     32.40     33.61    -28.62     24.00
   32.9547     32.96     33.63    -28.08     24.00
   32.9648     32.07     33.64    -28.98     24.00
   32.9750     33.29     33.65    -27.77     24.00
   32.9852     32.49     33.67    -28.58     24.00
   32.9953     33.06     33.67    -28.02     24.00
   33.0055     33.73     33.68    -27.36     24.00
   33.0157     33.29     33.69    -27.80     24.00
   33.0258     32.38     33.69    -28.72     24.00
   33.0360     32.93     33.70    -28.17     24.00
   33.0462     32.64     33.70    -28.46     24.00
   33.0563     31.73     33.70    -29.37     24.00
   33.0665     32.63     33.70    -28.47     24.00
   33.0766     33.80     33.69    -27.30     24.00
   33.0868     33.71     33.69    -27.38     24.00
   33.0970     33.21     33.68    -27.88     24.00
   33.1071     33.26     33.67    -27.82     24.00
   33.1173     32.49     33.66    -28.58     24.00
   33.1275     33.30     33.65    -27.76     24.00
   33.1376     32.34     33.64    -28.70     24.00
   33.1478     33.63     33.62    -27.40     24.00
   33.1580     33.26     33.61    -27.75     24.00
   33.1681     32.61     33.59    -28.38     24.00
   33.1783     33.38     33.57    -27.59     24.00
   33.1885     33.74     33.55    -27.21     24.00
   33.1986     33.53     33.52    -27.40     24.00
   33.2088     32.80     33.50    -28.10     24.00
   33.2189     33.48     33.47    -27.40     24.00
   33.2291     33.61     33.44    -27.24     24.00
   33.2393     32.59     33.41    -28.23     24.00
   33.2494     34.07     33.38    -26.72     24.00
   33.2596     33.39     33.35    -27.36     24.00
   33.2698     33.03     33.31    -27.69     24.00
   33.2799     33.11     33.28    -27.57     24.00
   33.2901     33.48     33.24    -27.16     24.00
   33.3003     33.47     33.20    -27.14     24.00
   33.3104     33.36     33.16    -27.20     24.00
   33.3206     33.52     33.12    -27.00     24.00
   33.3308     33.80     33.07    -26.68     24.00
   33.3409     32.15     33.03    -28.28     24.00
   33.3511     32.69     32.98    -27.70     24.00
   33.3613     33.18     32.93    -27.16     24.00
   33.3714     33.80     32.88    -26.49     24.00
   33.3816     33.44     32.83    -26.80     24.00
   33.3917     33.54     32.78    -26.65     24.00
   33.4019     33.41     32.73    -26.73     24.00
   33.4121     32.96     32.68    -27.12     24.00
   33.4222     32.47     32.62    -27.56     24.00
   33.4324     33.85     32.56    -26.12     24.00
   33.4426     33.11     32.51    -26.80     24.00
   33.4527     33.29     32.45    -26.57     24.00
   33.4629     33.80     32.39    -26.00     24.00
   33.4731     33.46     32.33    -26.28     24.00
   33.4832     33.16     32.27    -26.52     24.00
   33.4934     33.49     32.21    -26.12     24.00
   33.5036     32.58     32.15    -26.97     24.00
   33.5137     31.78     32.08    -27.71     24.00
   33.5239     33.05     32.02    -26.38     24.00
   33.5340     32.88     31.96    -26.48     24.00
   33.5442     32.17     31.89    -27.13     24.00
   33.5544     32.35     31.82    -26.88     24.00
   33.5645     31.89     31.76    -27.28     24.00
   33.5747     32.15     31.69    -26.95     24.00
   33.5849     32.29     31.62    -26.74     24.00
   33.5950     31.85     31.56    -27.11     24.00
   33.6052     32.64     31.49    -26.26     24.00
   33.6154     32.07     31.42    -26.76     24.00
   33.6255     31.84     31.35    -26.92     24.00
   33.6357     31.46     31.28    -27.23     24.00
   33.6459     31.38     31.21    -27.24     24.00
   33.6560     31.77     31.15    -26.78     24.00
   33.6662     32.02     31.08    -26.46     24.00
   33.6764     31.71     31.01    -26.70     24.00
   33.6865     31.71     30.94    -26.63     24.00
   33.6967     31.20     30.87    -27.07     24.00
   33.7068     31.60     30.80    -26.60     24.00
   33.7170     31.65     30.73    -26.48     24.00
   33.7272     30.64     30.66    -27.42     24.00
   33.7373     30.91     30.59    -27.08     24.00
   33.7475     30.66     30.52    -27.27     24.00
   33.7577     31.56     30.45    -26.30     24.00
   33.7678     31.29     30.38    -26.50     24.00
   33.7780     30.35     30.31    -27.37     24.00
   33.7882     29.79     30.24    -27.86     24.00
   33.7983     30.47     30.17    -27.11     24.00
   33.8085     30.04     30.11    -27.47     24.00
   33.8187     30.46     30.04    -26.98     24.00
   33.8288     30.08     29.97    -27.30     24.00
   33.8390     30.12     29.90    -27.19     24.00
   33.8491     29.67     29.84    -27.57     24.00
   33.8593     29.55     29.77    -27.62     24.00
   33.8695     29.18     29.70    -27.93     24.00
   33.8796     29.40     29.64    -27.64     24.00
   33.8898     29.71     29.57    -27.27     24.00
   33.9000     29.37     29.51    -27.54     24.00
   33.9101     29.71     29.44    -27.14     24.00
   33.9203     29.53     29.38    -27.25     24.00
   33.9305     28.92     29.31    -27.80     24.00
   33.9406     28.87     29.25    -27.79     24.00
   33.9508     29.09     29.19    -27.50     24.00
   33.9610     28.58     29.13    -27.95     24.00
   33.9711     28.34     29.07    -28.13     24.00
   33.9813     28.18     29.00    -28.23     24.00
   33.9915     28.65     28.94    -27.70     24.00
   34.0016     28.15     28.89    -28.14     24.00
   34.0118     27.68     28.83    -28.55     24.00
   34.0219     28.18     28.77    -27.99     24.00
   34.0321     28.52     28.71    -27.60     24.00
   34.0423     27.91     28.65    -28.15     24.00
   34.0524     27.52     28.60    -28.48     24.00
   34.0626     28.04     28.54    -27.91     24.00
   34.0728     27.71     28.49    -28.18     24.00
   34.0829     27.27     28.43    -28.57     24.00
   34.0931     28.30     28.38    -27.49     24.00
   34.1033     27.70     28.33    -28.03     24.00
   34.1134     27.44     28.28    -28.24     24.00
   34.1236     27.80     28.22    -27.83     24.00
   34.1338     27.85     28.17    -27.73     24.00
   34.1439     26.87     28.12    -28.66     24.00
   34.1541     27.50     28.07    -27.98     24.00
   34.1642     27.32     28.03    -28.11     24.00
   34.1744     27.26     27.98    -28.12     24.00
   34.1846     27.21     27.93    -28.13     24.00
   34.1947     26.98     27.89    -28.31     24.00
   34.2049     26.93     27.84    -28.32     24.00
   34.2151     27.29     27.80    -27.91     24.00
   34.2252     26.95     27.75    -28.21     24.00
   34.2354     26.39     27.71    -28.72     24.00
   34.2456     26.49     27.67    -28.58     24.00
   34.2557     27.67     27.62    -27.36     24.00
   34.2659     26.68     27.58    -28.31     24.00
   34.2761     26.72     27.54    -28.23     24.00
   34.2862     27.30     27.50    -27.61     24.00
   34.2964     26.65     27.46    -28.22     24.00
   34.3066     26.33     27.43    -28.50     24.00
   34.3167     26.51     27.39    -28.28     24.00
   34.3269     26.88     27.35    -27.88     24.00
   34.3370     26.54     27.32    -28.18     24.00
   34.3472     26.79     27.28    -27.90     24.00
   34.3574     26.28     27.25    -28.37     24.00
   34.3675     26.04     27.21    -28.58     24.00
   34.3777     27.35     27.18    -27.23     24.00
   34.3879     26.10     27.15    -28.45     24.00
   34.3980     25.96     27.11    -28.56     24.00
   34.4082     26.34     27.08    -28.15     24.00
   34.4184     26.67     27.05    -27.79     24.00
   34.4285     26.69     27.02    -27.74     24.00
   34.4387     25.40     26.99    -29.00     24.00
   34.4489     26.37     26.96    -28.00     24.00
   34.4590     26.51     26.93    -27.83     24.00
   34.4692     26.82     26.91    -27.49     24.00
   34.4793     25.47     26.88    -28.82     24.00
   34.4895     26.13     26.85    -28.13     24.00
   34.4997     26.34     26.83    -27.89     24.00
   34.5098     26.07     26.80    -28.14     24.00
   34.5200     25.54     26.78    -28.64     24.00
   34.5302     25.79     26.75    -28.37     24.00
   34.5403     26.17     26.73    -27.96     24.00
   34.5505     25.97     26.70    -28.14     24.00
   34.5607     26.37     26.68    -27.72     24.00
   34.5708     26.09     26.66    -27.98     24.00
   34.5810     26.26     26.64    -27.78     24.00
   34.5912     26.25     26.62    -27.77     24.00
   34.6013     26.16     26.60    -27.84     24.00
   34.6115     25.46     26.58    -28.52     24.00
   34.6217     26.34     26.56    -27.62     24.00
   34.6318     26.17     26.54    -27.77     24.00
   34.6420     25.51     26.52    -28.41     24.00
   34.6521     25.66     26.50    -28.25     24.00
   34.6623     26.10     26.48    -27.79     24.00
   34.6725     25.42     26.46    -28.45     24.00
   34.6826     25.84     26.45    -28.01     24.00
   34.6928     26.05     26.43    -27.79     24.00
   34.7030     26.36     26.41    -27.46     24.00
   34.7131     25.88     26.40    -27.92     24.00
   34.7233     24.85     26.38    -28.94     24.00
   34.7335     25.35     26.37    -28.42     24.00
   34.7436     25.66     26.35    -28.10     24.00
   34.7538     26.02     26.34    -27.72     24.00
   34.7640     25.50     26.32    -28.23     24.00
   34.7741     24.96     26.31    -28.75     24.00
   34.7843     25.09     26.29    -28.61     24.00
   34.7944     25.68     26.28    -28.01     24.00
   34.8046     24.88     26.27    -28.79     24.00
   34.8148     25.58     26.26    -28.08     24.00
   34.8249     25.18     26.24    -28.47     24.00
   34.8351     25.40     26.23    -28.24     24.00
   34.8453     25.54     26.22    -28.09     24.00
   34.8554     25.23     26.21    -28.38     24.00
   34.8656     24.98     26.20    -28.62     24.00
   34.8758     24.85     26.19    -28.74     24.00
   34.8859     25.32     26.17    -28.26     24.00
   34.8961     25.35     26.16    -28.22     24.00
   34.9063     25.90     26.15    -27.66     24.00
   34.9164     25.09     26.14    -28.46     24.00
   34.9266     25.85     26.13    -27.69     24.00
   34.9367     25.63     26.12    -27.90     24.00
   34.9469     25.69     26.11    -27.83     24.00
   34.9571     25.29     26.10    -28.22     24.00
   34.9672     24.85     26.10    -28.65     24.00
   34.9774     25.15     26.09    -28.34     24.00
   34.9876     24.84     26.08    -28.64     24.00
   34.9977     25.07     26.07    -28.41     24.00
   35.0079     24.92     26.06    -28.55     24.00
   35.0181     24.73     26.05    -28.73     24.00
   35.0282     25.47     26.05    -27.98     24.00
   35.0384     24.73     26.04    -28.71     24.00
   35.0486     24.85     26.03    -28.59     24.00
   35.0587     24.79     26.02    -28.64     24.00
   35.0689     25.10     26.01    -28.32     24.00
   35.0791     25.26     26.01    -28.15     24.00
   35.0892     25.18     26.00    -28.23     24.00
   35.0994     25.21     25.99    -28.19     24.00
   35.1095     25.35     25.99    -28.04     24.00
   35.1197     24.94     25.98    -28.45     24.00
   35.1299     24.83     25.97    -28.55     24.00
   35.1400     25.78     25.97    -27.59     24.00
   35.1502     24.80     25.96    -28.57     24.00
   35.1604     25.24     25.95    -28.12     24.00
   35.1705     24.95     25.95    -28.40     24.00
   35.1807     25.10     25.94    -28.25     24.00
   35.1909     24.95     25.94    -28.39     24.00
   35.2010     25.45     25.93    -27.89     24.00
   35.2112     23.98     25.92    -29.35     24.00
   35.2214     24.12     25.92    -29.20     24.00
   35.2315     25.36     25.91    -27.96     24.00
   35.2417     25.32     25.91    -27.99     24.00
   35.2518     25.04     25.90    -28.27     24.00
   35.2620     25.21     25.90    -28.09     24.00
   35.2722     24.70     25.89    -28.60     24.00
   35.2823     25.80     25.89    -27.49     24.00
   35.2925     24.78     25.88    -28.51     24.00
   35.3027     24.52     25.88    -28.76     24.00
   35.3128     24.35     25.87    -28.93     24.00
   35.3230     24.52     25.87    -28.75     24.00
   35.3332     24.82     25.86    -28.45     24.00
   35.3433     24.42     25.86    -28.84     24.00
   35.3535     24.79     25.85    -28.47     24.00
   35.3637     24.48     25.85    -28.77     24.00
   35.3738     24.23     25.84    -29.02     24.00
   35.3840     24.99     25.84    -28.25     24.00
   35.3942     24.46     25.83    -28.78     24.00
   35.4043     24.49     25.83    -28.74     24.00
   35.4145     24.16     25.82    -29.07     24.00
   35.4246     24.57     25.82    -28.66     24.00
   35.4348     25.39     25.82    -27.83     24.00
   35.4450     25.35     25.81    -27.87     24.00
   35.4551     24.65     25.81    -28.56     24.00
   35.4653     24.46     25.80    -28.75     24.00
   35.4755     24.46     25.80    -28.74     24.00
   35.4856     24.01     25.79    -29.19     24.00
   35.4958     23.89     25.79    -29.31     24.00
   35.5060     24.99     25.79    -28.20     24.00
   35.5161     24.99     25.78    -28.20     24.00
   35.5263     23.87     25.78    -29.31     24.00
   35.5365     24.45     25.77    -28.73     24.00
   35.5466     24.38     25.77    -28.80     24.00
   35.5568     24.89     25.77    -28.28     24.00
   35.5669     24.30     25.76    -28.87     24.00
   35.5771     24.46     25.76    -28.71     24.00
   35.5873     23.96     25.76    -29.20     24.00
   35.5974     23.91     25.75    -29.25     24.00
   35.6076     25.30     25.75    -27.85     24.00
   35.6178     24.54     25.74    -28.61     24.00
   35.6279     24.26     25.74    -28.89     24.00
   35.6381     24.70     25.74    -28.44     24.00
   35.6483     24.08     25.73    -29.06     24.00
   35.6584     24.75     25.73    -28.39     24.00
   35.6686     24.65     25.73    -28.48     24.00
   35.6788     24.35     25.72    -28.78     24.00
   35.6889     23.62     25.72    -29.51     24.00
   35.6991     23.69     25.72    -29.43     24.00
   35.7093     23.50     25.71    -29.62     24.00
   35.7194     24.54     25.71    -28.58     24.00
   35.7296     24.02     25.71    -29.09     24.00
   35.7397     23.62     25.70    -29.49     24.00
   35.7499     23.51     25.70    -29.60     24.00
   35.7601     24.98     25.70    -28.12     24.00
   35.7702     23.92     25.69    -29.18     24.00
   35.7804     23.90     25.69    -29.20     24.00
   35.7906     25.02     25.69    -28.07     24.00
   35.8007     23.94     25.68    -29.15     24.00
   35.8109     24.20     25.68    -28.89     24.00
   35.8211     24.24     25.68    -28.84     24.00
   35.8312     24.54     25.67    -28.54     24.00
   35.8414     24.09     25.67    -28.99     24.00
   35.8516     24.57     25.67    -28.50     24.00
   35.8617     24.05     25.66    -29.02     24.00
   35.8719     24.25     25.66    -28.82     24.00
   35.8820     24.26     25.66    -28.80     24.00
   35.8922     24.14     25.65    -28.92     24.00
   35.9024     24.10     25.65    -28.96     24.00
   35.9125     24.43     25.65    -28.62     24.00
   35.9227     24.30     25.65    -28.75     24.00
   35.9329     24.35     25.64    -28.70     24.00
   35.9430     24.32     25.64    -28.73     24.00
   35.9532     24.53     25.64    -28.51     24.00
   35.9634     24.37     25.63    -28.67     24.00
   35.9735     23.95     25.63    -29.09     24.00
   35.9837     24.24     25.63    -28.79     24.00
   35.9939     24.36     25.62    -28.67     24.00
