 => TITLE: 
 => Data file name: C:\Users\stefano\Nextcloud2\uni\master-thesis\XRD\data\G110\G110--5-40-0.01-1000ms.xy
 => Instrm        :    1
 => Lambda(1&2)   :   1.54060  1.54060
 => Numb.of.points:      2951
 => Numb.of.peaks :         8
    2Theta     Yobs     Ycalc  Yobs-Ycal    Backg    Bragg     Posr  Intensity   FWHM    Eta
    6.0086     24.21     27.12    -31.14     24.00   18.6422     -3.23     147.75  0.7462  0.5000
    6.0187     22.81     27.13    -32.54     24.00   20.5908     -3.23      44.10  0.9404  0.5000
    6.0289     23.58     27.13    -31.77     24.00   22.5425     -3.23     108.30  1.0227  0.5000
    6.0391     24.31     27.14    -31.05     24.00   28.5266     -3.23      55.46  1.2849  0.5000
    6.0492     23.40     27.14    -31.96     24.00   30.0386     -3.23      23.02  2.6458  0.5000
    6.0594     22.86     27.15    -32.51     24.00   33.1454     -3.23       8.98  2.6458  0.5000
    6.0696     22.82     27.15    -32.55     24.00   17.5000     -3.23      60.50  2.6458  0.5000
    6.0797     23.32     27.16    -32.06     24.00   20.0136     -3.23     882.31  8.7829  0.5000
    6.0899     23.02     27.16    -32.36     24.00
    6.1001     23.08     27.16    -32.31     24.00
    6.1102     23.36     27.17    -32.03     24.00
    6.1204     23.54     27.17    -31.86     24.00
    6.1306     23.07     27.18    -32.33     24.00
    6.1407     23.61     27.18    -31.80     24.00
    6.1509     23.74     27.19    -31.67     24.00
    6.1611     23.59     27.19    -31.82     24.00
    6.1712     23.54     27.20    -31.88     24.00
    6.1814     23.24     27.20    -32.18     24.00
    6.1915     22.85     27.21    -32.58     24.00
    6.2017     23.46     27.21    -31.97     24.00
    6.2119     23.52     27.22    -31.92     24.00
    6.2220     23.11     27.22    -32.33     24.00
    6.2322     23.62     27.23    -31.83     24.00
    6.2424     24.08     27.23    -31.37     24.00
    6.2525     22.77     27.24    -32.69     24.00
    6.2627     23.32     27.24    -32.14     24.00
    6.2729     23.79     27.25    -31.68     24.00
    6.2830     23.43     27.25    -32.04     24.00
    6.2932     23.14     27.26    -32.34     24.00
    6.3034     22.57     27.26    -32.91     24.00
    6.3135     23.15     27.27    -32.34     24.00
    6.3237     22.66     27.27    -32.83     24.00
    6.3338     23.16     27.28    -32.34     24.00
    6.3440     23.97     27.28    -31.53     24.00
    6.3542     23.28     27.29    -32.23     24.00
    6.3643     22.89     27.29    -32.62     24.00
    6.3745     23.23     27.30    -32.29     24.00
    6.3847     22.90     27.30    -32.62     24.00
    6.3948     22.51     27.31    -33.02     24.00
    6.4050     23.77     27.31    -31.76     24.00
    6.4152     23.41     27.32    -32.13     24.00
    6.4253     23.03     27.32    -32.51     24.00
    6.4355     23.00     27.33    -32.55     24.00
    6.4457     23.35     27.33    -32.20     24.00
    6.4558     23.45     27.34    -32.11     24.00
    6.4660     23.12     27.34    -32.44     24.00
    6.4762     22.98     27.35    -32.59     24.00
    6.4863     23.38     27.35    -32.19     24.00
    6.4965     23.34     27.36    -32.24     24.00
    6.5066     23.75     27.36    -31.83     24.00
    6.5168     23.45     27.37    -32.14     24.00
    6.5270     23.17     27.37    -32.42     24.00
    6.5371     23.08     27.38    -32.52     24.00
    6.5473     22.80     27.38    -32.80     24.00
    6.5575     23.36     27.39    -32.25     24.00
    6.5676     21.76     27.39    -33.85     24.00
    6.5778     23.21     27.40    -32.41     24.00
    6.5880     22.71     27.40    -32.92     24.00
    6.5981     23.18     27.41    -32.45     24.00
    6.6083     22.59     27.41    -33.05     24.00
    6.6185     23.41     27.42    -32.23     24.00
    6.6286     23.01     27.42    -32.64     24.00
    6.6388     23.46     27.43    -32.19     24.00
    6.6489     23.67     27.44    -31.99     24.00
    6.6591     23.79     27.44    -31.87     24.00
    6.6693     23.27     27.45    -32.40     24.00
    6.6794     23.60     27.45    -32.07     24.00
    6.6896     22.80     27.46    -32.88     24.00
    6.6998     23.59     27.46    -32.09     24.00
    6.7099     23.59     27.47    -32.10     24.00
    6.7201     22.59     27.47    -33.11     24.00
    6.7303     23.66     27.48    -32.04     24.00
    6.7404     22.66     27.49    -33.05     24.00
    6.7506     22.47     27.49    -33.24     24.00
    6.7608     23.46     27.50    -32.26     24.00
    6.7709     23.60     27.50    -32.12     24.00
    6.7811     23.57     27.51    -32.16     24.00
    6.7913     22.84     27.51    -32.90     24.00
    6.8014     23.08     27.52    -32.66     24.00
    6.8116     23.40     27.52    -32.35     24.00
    6.8217     23.15     27.53    -32.60     24.00
    6.8319     23.43     27.54    -32.33     24.00
    6.8421     23.67     27.54    -32.09     24.00
    6.8522     22.57     27.55    -33.20     24.00
    6.8624     24.00     27.55    -31.78     24.00
    6.8726     22.99     27.56    -32.79     24.00
    6.8827     23.12     27.56    -32.67     24.00
    6.8929     23.90     27.57    -31.89     24.00
    6.9031     22.65     27.58    -33.15     24.00
    6.9132     24.29     27.58    -31.51     24.00
    6.9234     24.07     27.59    -31.74     24.00
    6.9336     22.24     27.59    -33.58     24.00
    6.9437     23.03     27.60    -32.79     24.00
    6.9539     23.30     27.61    -32.53     24.00
    6.9640     23.65     27.61    -32.18     24.00
    6.9742     23.94     27.62    -31.90     24.00
    6.9844     23.76     27.62    -32.09     24.00
    6.9945     23.49     27.63    -32.36     24.00
    7.0047     23.61     27.64    -32.25     24.00
    7.0149     23.13     27.64    -32.73     24.00
    7.0250     23.76     27.65    -32.11     24.00
    7.0352     23.93     27.65    -31.95     24.00
    7.0454     24.56     27.66    -31.32     24.00
    7.0555     23.90     27.67    -31.99     24.00
    7.0657     23.99     27.67    -31.90     24.00
    7.0759     23.80     27.68    -32.10     24.00
    7.0860     23.62     27.68    -32.29     24.00
    7.0962     24.05     27.69    -31.86     24.00
    7.1064     23.28     27.70    -32.64     24.00
    7.1165     23.46     27.70    -32.47     24.00
    7.1267     23.81     27.71    -32.12     24.00
    7.1368     23.83     27.72    -32.11     24.00
    7.1470     23.75     27.72    -32.19     24.00
    7.1572     24.29     27.73    -31.66     24.00
    7.1673     23.67     27.73    -32.29     24.00
    7.1775     23.60     27.74    -32.36     24.00
    7.1877     23.73     27.75    -32.24     24.00
    7.1978     23.43     27.75    -32.55     24.00
    7.2080     23.58     27.76    -32.40     24.00
    7.2182     24.10     27.77    -31.89     24.00
    7.2283     24.15     27.77    -31.85     24.00
    7.2385     23.29     27.78    -32.71     24.00
    7.2487     24.35     27.79    -31.66     24.00
    7.2588     23.85     27.79    -32.17     24.00
    7.2690     23.58     27.80    -32.44     24.00
    7.2791     24.23     27.81    -31.80     24.00
    7.2893     23.85     27.81    -32.18     24.00
    7.2995     24.32     27.82    -31.72     24.00
    7.3096     24.64     27.83    -31.41     24.00
    7.3198     24.09     27.83    -31.96     24.00
    7.3300     23.55     27.84    -32.51     24.00
    7.3401     24.98     27.85    -31.09     24.00
    7.3503     24.16     27.85    -31.91     24.00
    7.3605     24.53     27.86    -31.55     24.00
    7.3706     23.41     27.87    -32.68     24.00
    7.3808     24.31     27.87    -31.79     24.00
    7.3910     24.02     27.88    -32.08     24.00
    7.4011     23.81     27.89    -32.30     24.00
    7.4113     24.54     27.89    -31.58     24.00
    7.4215     24.65     27.90    -31.47     24.00
    7.4316     24.94     27.91    -31.19     24.00
    7.4418     24.54     27.91    -31.60     24.00
    7.4519     24.26     27.92    -31.88     24.00
    7.4621     24.75     27.93    -31.40     24.00
    7.4723     24.30     27.94    -31.86     24.00
    7.4824     24.60     27.94    -31.56     24.00
    7.4926     24.66     27.95    -31.51     24.00
    7.5028     25.08     27.96    -31.10     24.00
    7.5129     24.99     27.96    -31.20     24.00
    7.5231     24.67     27.97    -31.52     24.00
    7.5333     24.32     27.98    -31.88     24.00
    7.5434     24.21     27.99    -32.00     24.00
    7.5536     24.99     27.99    -31.22     24.00
    7.5638     25.08     28.00    -31.14     24.00
    7.5739     24.48     28.01    -31.75     24.00
    7.5841     25.97     28.01    -30.27     24.00
    7.5942     24.87     28.02    -31.37     24.00
    7.6044     24.24     28.03    -32.01     24.00
    7.6146     25.04     28.04    -31.22     24.00
    7.6247     24.95     28.04    -31.32     24.00
    7.6349     24.25     28.05    -32.02     24.00
    7.6451     24.63     28.06    -31.65     24.00
    7.6552     24.43     28.07    -31.86     24.00
    7.6654     24.28     28.07    -32.02     24.00
    7.6756     25.02     28.08    -31.28     24.00
    7.6857     24.82     28.09    -31.49     24.00
    7.6959     24.46     28.10    -31.86     24.00
    7.7061     24.72     28.10    -31.61     24.00
    7.7162     25.55     28.11    -30.78     24.00
    7.7264     24.27     28.12    -32.07     24.00
    7.7365     25.60     28.13    -30.75     24.00
    7.7467     24.95     28.14    -31.41     24.00
    7.7569     25.21     28.14    -31.15     24.00
    7.7670     25.04     28.15    -31.33     24.00
    7.7772     25.31     28.16    -31.07     24.00
    7.7874     24.64     28.17    -31.75     24.00
    7.7975     24.83     28.17    -31.57     24.00
    7.8077     25.73     28.18    -30.67     24.00
    7.8179     25.45     28.19    -30.96     24.00
    7.8280     24.49     28.20    -31.93     24.00
    7.8382     25.24     28.21    -31.19     24.00
    7.8484     24.96     28.21    -31.48     24.00
    7.8585     25.26     28.22    -31.18     24.00
    7.8687     25.69     28.23    -30.76     24.00
    7.8789     25.13     28.24    -31.33     24.00
    7.8890     24.63     28.25    -31.84     24.00
    7.8992     25.47     28.25    -31.01     24.00
    7.9093     25.97     28.26    -30.51     24.00
    7.9195     25.85     28.27    -30.64     24.00
    7.9297     25.84     28.28    -30.66     24.00
    7.9398     25.43     28.29    -31.08     24.00
    7.9500     25.23     28.30    -31.29     24.00
    7.9602     26.21     28.30    -30.32     24.00
    7.9703     25.26     28.31    -31.27     24.00
    7.9805     25.14     28.32    -31.40     24.00
    7.9907     26.83     28.33    -29.72     24.00
    8.0008     26.15     28.34    -30.41     24.00
    8.0110     25.86     28.35    -30.71     24.00
    8.0212     25.90     28.36    -30.68     24.00
    8.0313     26.79     28.36    -29.80     24.00
    8.0415     25.56     28.37    -31.03     24.00
    8.0516     25.83     28.38    -30.77     24.00
    8.0618     25.93     28.39    -30.68     24.00
    8.0720     26.23     28.40    -30.39     24.00
    8.0821     27.07     28.41    -29.56     24.00
    8.0923     25.65     28.42    -30.99     24.00
    8.1025     25.71     28.42    -30.94     24.00
    8.1126     26.55     28.43    -30.11     24.00
    8.1228     25.62     28.44    -31.04     24.00
    8.1330     26.27     28.45    -30.40     24.00
    8.1431     25.93     28.46    -30.75     24.00
    8.1533     26.11     28.47    -30.58     24.00
    8.1635     25.56     28.48    -31.14     24.00
    8.1736     25.95     28.49    -30.76     24.00
    8.1838     26.13     28.50    -30.59     24.00
    8.1940     26.67     28.51    -30.06     24.00
    8.2041     26.24     28.51    -30.50     24.00
    8.2143     26.70     28.52    -30.05     24.00
    8.2244     27.26     28.53    -29.49     24.00
    8.2346     26.81     28.54    -29.95     24.00
    8.2448     26.13     28.55    -30.64     24.00
    8.2549     26.85     28.56    -29.93     24.00
    8.2651     26.51     28.57    -30.28     24.00
    8.2753     25.79     28.58    -31.01     24.00
    8.2854     26.55     28.59    -30.26     24.00
    8.2956     26.26     28.60    -30.56     24.00
    8.3058     26.87     28.61    -29.96     24.00
    8.3159     25.85     28.62    -30.99     24.00
    8.3261     26.99     28.63    -29.86     24.00
    8.3363     26.71     28.64    -30.15     24.00
    8.3464     26.52     28.65    -30.35     24.00
    8.3566     27.10     28.66    -29.78     24.00
    8.3667     26.33     28.67    -30.56     24.00
    8.3769     26.35     28.68    -30.55     24.00
    8.3871     26.68     28.69    -30.23     24.00
    8.3972     26.37     28.70    -30.55     24.00
    8.4074     26.47     28.71    -30.46     24.00
    8.4176     27.10     28.72    -29.84     24.00
    8.4277     26.38     28.73    -30.57     24.00
    8.4379     26.83     28.74    -30.13     24.00
    8.4481     28.05     28.75    -28.92     24.00
    8.4582     26.23     28.76    -30.75     24.00
    8.4684     27.22     28.77    -29.77     24.00
    8.4786     27.45     28.78    -29.55     24.00
    8.4887     26.52     28.79    -30.49     24.00
    8.4989     27.06     28.80    -29.96     24.00
    8.5091     27.37     28.81    -29.66     24.00
    8.5192     26.76     28.82    -30.28     24.00
    8.5294     27.67     28.83    -29.38     24.00
    8.5395     27.58     28.84    -29.48     24.00
    8.5497     26.64     28.85    -30.43     24.00
    8.5599     27.57     28.86    -29.51     24.00
    8.5700     26.77     28.87    -30.32     24.00
    8.5802     27.02     28.88    -30.08     24.00
    8.5904     27.98     28.89    -29.13     24.00
    8.6005     27.67     28.90    -29.45     24.00
    8.6107     27.40     28.91    -29.73     24.00
    8.6209     27.88     28.92    -29.26     24.00
    8.6310     27.31     28.93    -29.85     24.00
    8.6412     27.05     28.94    -30.12     24.00
    8.6514     27.22     28.96    -29.96     24.00
    8.6615     27.54     28.97    -29.65     24.00
    8.6717     27.60     28.98    -29.60     24.00
    8.6818     28.15     28.99    -29.06     24.00
    8.6920     27.24     29.00    -29.98     24.00
    8.7022     27.63     29.01    -29.60     24.00
    8.7123     28.09     29.02    -29.15     24.00
    8.7225     27.59     29.03    -29.66     24.00
    8.7327     27.75     29.04    -29.52     24.00
    8.7428     27.10     29.06    -30.18     24.00
    8.7530     27.43     29.07    -29.86     24.00
    8.7632     28.12     29.08    -29.18     24.00
    8.7733     27.91     29.09    -29.40     24.00
    8.7835     28.43     29.10    -28.89     24.00
    8.7937     27.65     29.11    -29.68     24.00
    8.8038     27.91     29.12    -29.44     24.00
    8.8140     27.81     29.14    -29.55     24.00
    8.8242     27.69     29.15    -29.68     24.00
    8.8343     28.10     29.16    -29.28     24.00
    8.8445     29.26     29.17    -28.13     24.00
    8.8546     27.74     29.18    -29.66     24.00
    8.8648     28.12     29.19    -29.30     24.00
    8.8750     28.46     29.21    -28.97     24.00
    8.8851     26.89     29.22    -30.55     24.00
    8.8953     28.28     29.23    -29.17     24.00
    8.9055     28.25     29.24    -29.21     24.00
    8.9156     27.30     29.25    -30.18     24.00
    8.9258     28.38     29.27    -29.11     24.00
    8.9360     27.76     29.28    -29.74     24.00
    8.9461     27.63     29.29    -29.88     24.00
    8.9563     28.03     29.30    -29.50     24.00
    8.9665     28.03     29.32    -29.51     24.00
    8.9766     27.88     29.33    -29.67     24.00
    8.9868     28.47     29.34    -29.09     24.00
    8.9969     28.04     29.35    -29.54     24.00
    9.0071     28.46     29.37    -29.13     24.00
    9.0173     28.03     29.38    -29.57     24.00
    9.0274     28.57     29.39    -29.04     24.00
    9.0376     28.49     29.40    -29.14     24.00
    9.0478     29.70     29.42    -27.94     24.00
    9.0579     29.12     29.43    -28.53     24.00
    9.0681     27.35     29.44    -30.31     24.00
    9.0783     28.25     29.46    -29.43     24.00
    9.0884     28.95     29.47    -28.74     24.00
    9.0986     28.96     29.48    -28.74     24.00
    9.1088     28.86     29.50    -28.86     24.00
    9.1189     29.11     29.51    -28.62     24.00
    9.1291     28.80     29.52    -28.94     24.00
    9.1393     29.79     29.53    -27.97     24.00
    9.1494     28.92     29.55    -28.85     24.00
    9.1596     28.35     29.56    -29.43     24.00
    9.1697     29.52     29.58    -28.28     24.00
    9.1799     28.71     29.59    -29.10     24.00
    9.1901     28.02     29.60    -29.80     24.00
    9.2002     29.21     29.62    -28.63     24.00
    9.2104     28.91     29.63    -28.94     24.00
    9.2206     29.21     29.64    -28.66     24.00
    9.2307     30.04     29.66    -27.84     24.00
    9.2409     29.27     29.67    -28.62     24.00
    9.2511     28.39     29.69    -29.52     24.00
    9.2612     29.15     29.70    -28.77     24.00
    9.2714     29.73     29.71    -28.21     24.00
    9.2816     28.58     29.73    -29.37     24.00
    9.2917     28.97     29.74    -28.99     24.00
    9.3019     29.65     29.76    -28.33     24.00
    9.3120     28.69     29.77    -29.30     24.00
    9.3222     29.46     29.78    -28.55     24.00
    9.3324     29.43     29.80    -28.59     24.00
    9.3425     29.21     29.81    -28.83     24.00
    9.3527     28.66     29.83    -29.39     24.00
    9.3629     29.82     29.84    -28.24     24.00
    9.3730     29.71     29.86    -28.37     24.00
    9.3832     29.89     29.87    -28.20     24.00
    9.3934     29.50     29.89    -28.61     24.00
    9.4035     29.34     29.90    -28.78     24.00
    9.4137     30.27     29.92    -27.87     24.00
    9.4239     30.27     29.93    -27.88     24.00
    9.4340     29.21     29.95    -28.96     24.00
    9.4442     29.13     29.96    -29.05     24.00
    9.4544     29.55     29.98    -28.65     24.00
    9.4645     29.80     29.99    -28.41     24.00
    9.4747     29.27     30.01    -28.96     24.00
    9.4848     29.71     30.02    -28.53     24.00
    9.4950     29.03     30.04    -29.23     24.00
    9.5052     29.59     30.05    -28.69     24.00
    9.5153     29.71     30.07    -28.58     24.00
    9.5255     29.78     30.08    -28.53     24.00
    9.5357     29.70     30.10    -28.62     24.00
    9.5458     29.23     30.12    -29.11     24.00
    9.5560     29.35     30.13    -29.00     24.00
    9.5662     30.04     30.15    -28.33     24.00
    9.5763     29.64     30.16    -28.75     24.00
    9.5865     29.22     30.18    -29.18     24.00
    9.5967     30.45     30.20    -27.97     24.00
    9.6068     29.98     30.21    -28.45     24.00
    9.6170     29.45     30.23    -29.00     24.00
    9.6271     29.88     30.25    -28.59     24.00
    9.6373     30.20     30.26    -28.28     24.00
    9.6475     29.82     30.28    -28.68     24.00
    9.6576     29.82     30.29    -28.70     24.00
    9.6678     29.85     30.31    -28.68     24.00
    9.6780     30.34     30.33    -28.21     24.00
    9.6881     30.43     30.34    -28.14     24.00
    9.6983     30.23     30.36    -28.35     24.00
    9.7085     30.19     30.38    -28.41     24.00
    9.7186     30.23     30.40    -28.39     24.00
    9.7288     30.12     30.41    -28.51     24.00
    9.7390     30.22     30.43    -28.43     24.00
    9.7491     30.49     30.45    -28.18     24.00
    9.7593     30.60     30.46    -28.09     24.00
    9.7694     30.87     30.48    -27.83     24.00
    9.7796     30.07     30.50    -28.65     24.00
    9.7898     29.85     30.52    -28.89     24.00
    9.7999     31.41     30.53    -27.35     24.00
    9.8101     30.90     30.55    -27.87     24.00
    9.8203     30.88     30.57    -27.91     24.00
    9.8304     29.56     30.59    -29.25     24.00
    9.8406     30.20     30.61    -28.63     24.00
    9.8508     31.06     30.62    -27.79     24.00
    9.8609     31.07     30.64    -27.79     24.00
    9.8711     30.26     30.66    -28.62     24.00
    9.8813     31.27     30.68    -27.63     24.00
    9.8914     30.98     30.70    -27.94     24.00
    9.9016     30.09     30.71    -28.85     24.00
    9.9118     30.51     30.73    -28.44     24.00
    9.9219     29.86     30.75    -29.11     24.00
    9.9321     31.88     30.77    -27.11     24.00
    9.9422     30.56     30.79    -28.45     24.00
    9.9524     30.88     30.81    -28.15     24.00
    9.9626     30.95     30.83    -28.10     24.00
    9.9727     32.48     30.85    -26.59     24.00
    9.9829     31.09     30.86    -28.00     24.00
    9.9931     31.24     30.88    -27.87     24.00
   10.0032     30.30     30.90    -28.82     24.00
   10.0134     31.18     30.92    -27.96     24.00
   10.0236     30.96     30.94    -28.20     24.00
   10.0337     30.51     30.96    -28.67     24.00
   10.0439     30.86     30.98    -28.34     24.00
   10.0541     31.01     31.00    -28.21     24.00
   10.0642     31.24     31.02    -28.00     24.00
   10.0744     30.90     31.04    -28.36     24.00
   10.0845     30.98     31.06    -28.30     24.00
   10.0947     31.37     31.08    -27.93     24.00
   10.1049     31.26     31.10    -28.06     24.00
   10.1150     31.40     31.12    -27.94     24.00
   10.1252     31.07     31.14    -28.29     24.00
   10.1354     30.98     31.16    -28.40     24.00
   10.1455     31.84     31.18    -27.56     24.00
   10.1557     31.38     31.20    -28.04     24.00
   10.1659     31.41     31.22    -28.03     24.00
   10.1760     31.23     31.24    -28.23     24.00
   10.1862     31.77     31.26    -27.71     24.00
   10.1964     30.60     31.28    -28.91     24.00
   10.2065     31.76     31.30    -27.77     24.00
   10.2167     32.11     31.33    -27.44     24.00
   10.2269     31.41     31.35    -28.16     24.00
   10.2370     31.84     31.37    -27.75     24.00
   10.2472     32.03     31.39    -27.58     24.00
   10.2573     31.69     31.41    -27.94     24.00
   10.2675     32.45     31.43    -27.20     24.00
   10.2777     32.20     31.45    -27.48     24.00
   10.2878     33.42     31.48    -26.28     24.00
   10.2980     32.07     31.50    -27.65     24.00
   10.3082     31.26     31.52    -28.48     24.00
   10.3183     32.27     31.54    -27.49     24.00
   10.3285     32.58     31.56    -27.21     24.00
   10.3387     31.85     31.59    -27.96     24.00
   10.3488     32.09     31.61    -27.74     24.00
   10.3590     31.80     31.63    -28.05     24.00
   10.3692     32.66     31.65    -27.21     24.00
   10.3793     32.16     31.67    -27.74     24.00
   10.3895     31.50     31.70    -28.42     24.00
   10.3996     31.54     31.72    -28.40     24.00
   10.4098     31.87     31.74    -28.10     24.00
   10.4200     32.47     31.77    -27.52     24.00
   10.4301     31.87     31.79    -28.14     24.00
   10.4403     31.52     31.81    -28.51     24.00
   10.4505     33.21     31.84    -26.85     24.00
   10.4606     31.72     31.86    -28.36     24.00
   10.4708     31.80     31.88    -28.30     24.00
   10.4810     33.03     31.91    -27.10     24.00
   10.4911     32.50     31.93    -27.65     24.00
   10.5013     32.94     31.95    -27.24     24.00
   10.5115     32.33     31.98    -27.87     24.00
   10.5216     32.26     32.00    -27.96     24.00
   10.5318     32.68     32.03    -27.57     24.00
   10.5420     33.45     32.05    -26.82     24.00
   10.5521     31.93     32.07    -28.37     24.00
   10.5623     32.99     32.10    -27.33     24.00
   10.5724     32.41     32.12    -27.93     24.00
   10.5826     31.85     32.15    -28.52     24.00
   10.5928     32.97     32.17    -27.42     24.00
   10.6029     33.65     32.20    -26.77     24.00
   10.6131     31.95     32.22    -28.49     24.00
   10.6233     32.31     32.25    -28.16     24.00
   10.6334     32.45     32.27    -28.04     24.00
   10.6436     32.54     32.30    -27.98     24.00
   10.6538     33.07     32.32    -27.47     24.00
   10.6639     33.40     32.35    -27.17     24.00
   10.6741     32.73     32.37    -27.87     24.00
   10.6843     33.18     32.40    -27.44     24.00
   10.6944     32.52     32.43    -28.13     24.00
   10.7046     33.15     32.45    -27.52     24.00
   10.7147     33.05     32.48    -27.65     24.00
   10.7249     34.22     32.50    -26.51     24.00
   10.7351     33.19     32.53    -27.56     24.00
   10.7452     32.63     32.56    -28.15     24.00
   10.7554     31.93     32.58    -28.87     24.00
   10.7656     32.98     32.61    -27.85     24.00
   10.7757     32.42     32.64    -28.44     24.00
   10.7859     32.95     32.66    -27.93     24.00
   10.7961     32.87     32.69    -28.04     24.00
   10.8062     32.84     32.72    -28.10     24.00
   10.8164     32.63     32.74    -28.34     24.00
   10.8266     33.52     32.77    -27.47     24.00
   10.8367     34.20     32.80    -26.82     24.00
   10.8469     32.66     32.83    -28.39     24.00
   10.8571     33.16     32.85    -27.92     24.00
   10.8672     34.68     32.88    -26.42     24.00
   10.8774     34.35     32.91    -26.78     24.00
   10.8875     33.53     32.94    -27.63     24.00
   10.8977     33.81     32.97    -27.38     24.00
   10.9079     34.16     32.99    -27.06     24.00
   10.9180     33.96     33.02    -27.28     24.00
   10.9282     33.48     33.05    -27.79     24.00
   10.9384     34.22     33.08    -27.08     24.00
   10.9485     33.95     33.11    -27.38     24.00
   10.9587     32.79     33.14    -28.57     24.00
   10.9689     33.62     33.17    -27.77     24.00
   10.9790     33.59     33.20    -27.83     24.00
   10.9892     33.42     33.22    -28.03     24.00
   10.9994     33.84     33.25    -27.64     24.00
   11.0095     33.43     33.28    -28.08     24.00
   11.0197     33.37     33.31    -28.16     24.00
   11.0298     34.27     33.34    -27.29     24.00
   11.0400     34.70     33.37    -26.89     24.00
   11.0502     34.40     33.40    -27.22     24.00
   11.0603     34.40     33.43    -27.25     24.00
   11.0705     34.01     33.46    -27.67     24.00
   11.0807     34.22     33.49    -27.50     24.00
   11.0908     33.93     33.52    -27.82     24.00
   11.1010     34.30     33.55    -27.48     24.00
   11.1112     34.43     33.59    -27.38     24.00
   11.1213     33.84     33.62    -28.00     24.00
   11.1315     34.66     33.65    -27.21     24.00
   11.1417     33.99     33.68    -27.91     24.00
   11.1518     34.98     33.71    -26.95     24.00
   11.1620     35.28     33.74    -26.68     24.00
   11.1722     34.41     33.77    -27.58     24.00
   11.1823     34.84     33.80    -27.19     24.00
   11.1925     33.68     33.84    -28.38     24.00
   11.2026     34.07     33.87    -28.02     24.00
   11.2128     34.71     33.90    -27.41     24.00
   11.2230     35.80     33.93    -26.35     24.00
   11.2331     33.97     33.96    -28.22     24.00
   11.2433     34.85     34.00    -27.37     24.00
   11.2535     34.32     34.03    -27.93     24.00
   11.2636     34.38     34.06    -27.90     24.00
   11.2738     34.65     34.10    -27.67     24.00
   11.2840     35.38     34.13    -26.97     24.00
   11.2941     34.45     34.16    -27.93     24.00
   11.3043     35.39     34.20    -27.03     24.00
   11.3145     35.63     34.23    -26.82     24.00
   11.3246     35.02     34.26    -27.46     24.00
   11.3348     35.45     34.30    -27.07     24.00
   11.3449     34.40     34.33    -28.15     24.00
   11.3551     34.65     34.36    -27.94     24.00
   11.3653     35.29     34.40    -27.33     24.00
   11.3754     35.36     34.43    -27.29     24.00
   11.3856     34.79     34.47    -27.90     24.00
   11.3958     34.82     34.50    -27.90     24.00
   11.4059     34.41     34.54    -28.35     24.00
   11.4161     34.35     34.57    -28.44     24.00
   11.4263     34.53     34.61    -28.30     24.00
   11.4364     34.49     34.64    -28.37     24.00
   11.4466     36.00     34.68    -26.90     24.00
   11.4568     34.71     34.71    -28.22     24.00
   11.4669     36.04     34.75    -26.93     24.00
   11.4771     35.67     34.78    -27.34     24.00
   11.4873     35.43     34.82    -27.61     24.00
   11.4974     35.53     34.86    -27.55     24.00
   11.5076     35.21     34.89    -27.90     24.00
   11.5177     36.40     34.93    -26.75     24.00
   11.5279     35.82     34.97    -27.37     24.00
   11.5381     35.29     35.00    -27.93     24.00
   11.5482     35.65     35.04    -27.61     24.00
   11.5584     35.62     35.08    -27.68     24.00
   11.5686     35.91     35.11    -27.43     24.00
   11.5787     36.46     35.15    -26.91     24.00
   11.5889     35.54     35.19    -27.87     24.00
   11.5991     36.45     35.23    -27.00     24.00
   11.6092     36.45     35.26    -27.03     24.00
   11.6194     36.38     35.30    -27.14     24.00
   11.6296     35.99     35.34    -27.57     24.00
   11.6397     35.63     35.38    -27.97     24.00
   11.6499     35.30     35.42    -28.34     24.00
   11.6600     35.84     35.45    -27.84     24.00
   11.6702     36.04     35.49    -27.67     24.00
   11.6804     36.67     35.53    -27.08     24.00
   11.6905     36.29     35.57    -27.50     24.00
   11.7007     36.48     35.61    -27.35     24.00
   11.7109     37.13     35.65    -26.74     24.00
   11.7210     35.45     35.69    -28.46     24.00
   11.7312     36.18     35.73    -27.77     24.00
   11.7414     36.68     35.77    -27.31     24.00
   11.7515     36.46     35.81    -27.57     24.00
   11.7617     36.26     35.85    -27.81     24.00
   11.7719     36.75     35.89    -27.36     24.00
   11.7820     35.94     35.93    -28.21     24.00
   11.7922     36.94     35.97    -27.25     24.00
   11.8023     36.52     36.01    -27.71     24.00
   11.8125     37.03     36.05    -27.24     24.00
   11.8227     37.53     36.09    -26.78     24.00
   11.8328     36.90     36.13    -27.46     24.00
   11.8430     36.87     36.18    -27.53     24.00
   11.8532     36.81     36.22    -27.63     24.00
   11.8633     37.05     36.26    -27.43     24.00
   11.8735     37.11     36.30    -27.41     24.00
   11.8837     37.54     36.34    -27.03     24.00
   11.8938     36.74     36.39    -27.87     24.00
   11.9040     37.54     36.43    -27.11     24.00
   11.9142     37.84     36.47    -26.85     24.00
   11.9243     37.65     36.51    -27.09     24.00
   11.9345     36.70     36.56    -28.08     24.00
   11.9447     37.98     36.60    -26.84     24.00
   11.9548     37.68     36.64    -27.18     24.00
   11.9650     37.37     36.69    -27.54     24.00
   11.9751     37.21     36.73    -27.74     24.00
   11.9853     37.27     36.77    -27.73     24.00
   11.9955     37.32     36.82    -27.72     24.00
   12.0056     37.75     36.86    -27.33     24.00
   12.0158     37.84     36.91    -27.29     24.00
   12.0260     37.78     36.95    -27.39     24.00
   12.0361     37.27     37.00    -27.95     24.00
   12.0463     38.41     37.04    -26.85     24.00
   12.0565     38.57     37.09    -26.74     24.00
   12.0666     38.48     37.13    -26.87     24.00
   12.0768     37.16     37.18    -28.24     24.00
   12.0870     38.32     37.22    -27.12     24.00
   12.0971     38.20     37.27    -27.29     24.00
   12.1073     38.04     37.31    -27.50     24.00
   12.1174     38.59     37.36    -26.99     24.00
   12.1276     37.98     37.41    -27.65     24.00
   12.1378     38.06     37.45    -27.61     24.00
   12.1479     37.56     37.50    -28.16     24.00
   12.1581     38.97     37.55    -26.80     24.00
   12.1683     39.48     37.59    -26.34     24.00
   12.1784     38.05     37.64    -27.81     24.00
   12.1886     39.35     37.69    -26.56     24.00
   12.1988     38.36     37.74    -27.60     24.00
   12.2089     38.23     37.78    -27.78     24.00
   12.2191     38.77     37.83    -27.28     24.00
   12.2293     39.25     37.88    -26.85     24.00
   12.2394     39.08     37.93    -27.07     24.00
   12.2496     38.66     37.98    -27.54     24.00
   12.2598     38.26     38.03    -27.99     24.00
   12.2699     38.51     38.07    -27.79     24.00
   12.2801     39.24     38.12    -27.11     24.00
   12.2902     39.34     38.17    -27.05     24.00
   12.3004     39.60     38.22    -26.84     24.00
   12.3106     39.37     38.27    -27.12     24.00
   12.3207     39.55     38.32    -26.99     24.00
   12.3309     38.96     38.37    -27.63     24.00
   12.3411     39.20     38.42    -27.44     24.00
   12.3512     39.80     38.47    -26.89     24.00
   12.3614     39.13     38.52    -27.61     24.00
   12.3716     39.04     38.57    -27.76     24.00
   12.3817     39.99     38.62    -26.86     24.00
   12.3919     40.00     38.68    -26.90     24.00
   12.4021     39.43     38.73    -27.52     24.00
   12.4122     39.07     38.78    -27.93     24.00
   12.4224     39.57     38.83    -27.48     24.00
   12.4325     39.89     38.88    -27.21     24.00
   12.4427     39.43     38.94    -27.73     24.00
   12.4529     39.89     38.99    -27.32     24.00
   12.4630     40.08     39.04    -27.18     24.00
   12.4732     39.71     39.09    -27.60     24.00
   12.4834     40.43     39.15    -26.94     24.00
   12.4935     40.71     39.20    -26.71     24.00
   12.5037     40.70     39.25    -26.77     24.00
   12.5139     40.75     39.31    -26.78     24.00
   12.5240     39.51     39.36    -28.07     24.00
   12.5342     40.62     39.41    -27.02     24.00
   12.5444     39.95     39.47    -27.74     24.00
   12.5545     39.97     39.52    -27.77     24.00
   12.5647     40.98     39.58    -26.82     24.00
   12.5749     41.31     39.63    -26.54     24.00
   12.5850     41.26     39.69    -26.65     24.00
   12.5952     40.17     39.74    -27.79     24.00
   12.6053     42.05     39.80    -25.97     24.00
   12.6155     40.71     39.85    -27.37     24.00
   12.6257     41.46     39.91    -26.67     24.00
   12.6358     42.36     39.96    -25.83     24.00
   12.6460     40.99     40.02    -27.25     24.00
   12.6562     40.71     40.08    -27.59     24.00
   12.6663     42.66     40.13    -25.70     24.00
   12.6765     40.71     40.19    -27.70     24.00
   12.6867     40.71     40.25    -27.76     24.00
   12.6968     41.24     40.31    -27.29     24.00
   12.7070     41.26     40.36    -27.33     24.00
   12.7172     41.18     40.42    -27.46     24.00
   12.7273     42.27     40.48    -26.43     24.00
   12.7375     42.38     40.54    -26.38     24.00
   12.7476     41.92     40.60    -26.90     24.00
   12.7578     41.09     40.65    -27.79     24.00
   12.7680     41.40     40.71    -27.53     24.00
   12.7781     41.97     40.77    -27.02     24.00
   12.7883     42.95     40.83    -26.10     24.00
   12.7985     41.59     40.89    -27.52     24.00
   12.8086     42.45     40.95    -26.72     24.00
   12.8188     41.79     41.01    -27.44     24.00
   12.8290     42.61     41.07    -26.68     24.00
   12.8391     41.70     41.13    -27.65     24.00
   12.8493     43.93     41.19    -25.48     24.00
   12.8595     42.51     41.25    -26.96     24.00
   12.8696     42.35     41.31    -27.18     24.00
   12.8798     41.95     41.37    -27.65     24.00
   12.8900     42.12     41.44    -27.54     24.00
   12.9001     42.84     41.50    -26.88     24.00
   12.9103     42.68     41.56    -27.10     24.00
   12.9204     43.13     41.62    -26.71     24.00
   12.9306     42.55     41.68    -27.35     24.00
   12.9408     42.98     41.75    -26.99     24.00
   12.9509     43.46     41.81    -26.57     24.00
   12.9611     43.18     41.87    -26.91     24.00
   12.9713     42.17     41.93    -27.99     24.00
   12.9814     43.04     42.00    -27.18     24.00
   12.9916     43.20     42.06    -27.08     24.00
   13.0018     43.87     42.13    -26.48     24.00
   13.0119     43.37     42.19    -27.04     24.00
   13.0221     43.34     42.25    -27.14     24.00
   13.0323     43.59     42.32    -26.95     24.00
   13.0424     44.07     42.38    -26.54     24.00
   13.0526     43.79     42.45    -26.88     24.00
   13.0627     42.47     42.51    -28.27     24.00
   13.0729     43.96     42.58    -26.84     24.00
   13.0831     43.70     42.64    -27.17     24.00
   13.0932     45.29     42.71    -25.64     24.00
   13.1034     44.37     42.78    -26.63     24.00
   13.1136     43.73     42.84    -27.34     24.00
   13.1237     44.18     42.91    -26.95     24.00
   13.1339     44.73     42.98    -26.47     24.00
   13.1441     44.70     43.04    -26.57     24.00
   13.1542     43.84     43.11    -27.49     24.00
   13.1644     44.20     43.18    -27.20     24.00
   13.1746     44.19     43.25    -27.28     24.00
   13.1847     45.10     43.31    -26.44     24.00
   13.1949     43.71     43.38    -27.90     24.00
   13.2051     44.72     43.45    -26.95     24.00
   13.2152     45.20     43.52    -26.54     24.00
   13.2254     44.53     43.59    -27.28     24.00
   13.2355     44.99     43.66    -26.89     24.00
   13.2457     45.13     43.73    -26.82     24.00
   13.2559     44.75     43.80    -27.27     24.00
   13.2660     45.15     43.87    -26.94     24.00
   13.2762     45.51     43.94    -26.65     24.00
   13.2864     45.77     44.01    -26.46     24.00
   13.2965     45.68     44.08    -26.62     24.00
   13.3067     45.84     44.15    -26.53     24.00
   13.3169     46.29     44.22    -26.15     24.00
   13.3270     46.68     44.29    -25.84     24.00
   13.3372     46.00     44.37    -26.59     24.00
   13.3474     45.85     44.44    -26.81     24.00
   13.3575     45.33     44.51    -27.40     24.00
   13.3677     46.33     44.58    -26.47     24.00
   13.3778     45.94     44.65    -26.94     24.00
   13.3880     46.57     44.73    -26.38     24.00
   13.3982     45.87     44.80    -27.15     24.00
   13.4083     45.98     44.87    -27.12     24.00
   13.4185     46.38     44.95    -26.79     24.00
   13.4287     46.85     45.02    -26.39     24.00
   13.4388     46.31     45.10    -27.01     24.00
   13.4490     46.59     45.17    -26.80     24.00
   13.4592     46.90     45.25    -26.57     24.00
   13.4693     46.11     45.32    -27.43     24.00
   13.4795     47.08     45.40    -26.54     24.00
   13.4897     45.95     45.47    -27.74     24.00
   13.4998     47.89     45.55    -25.88     24.00
   13.5100     47.34     45.62    -26.51     24.00
   13.5201     47.52     45.70    -26.40     24.00
   13.5303     47.35     45.78    -26.65     24.00
   13.5405     47.30     45.85    -26.78     24.00
   13.5506     47.23     45.93    -26.92     24.00
   13.5608     47.77     46.01    -26.46     24.00
   13.5710     48.13     46.09    -26.18     24.00
   13.5811     47.51     46.16    -26.88     24.00
   13.5913     48.71     46.24    -25.75     24.00
   13.6015     48.30     46.32    -26.24     24.00
   13.6116     48.66     46.40    -25.96     24.00
   13.6218     48.67     46.48    -26.03     24.00
   13.6320     46.85     46.56    -27.93     24.00
   13.6421     48.56     46.64    -26.30     24.00
   13.6523     47.85     46.72    -27.09     24.00
   13.6625     48.54     46.80    -26.48     24.00
   13.6726     48.80     46.88    -26.30     24.00
   13.6828     47.99     46.96    -27.19     24.00
   13.6929     47.68     47.04    -27.58     24.00
   13.7031     49.54     47.12    -25.80     24.00
   13.7133     48.91     47.20    -26.52     24.00
   13.7234     49.24     47.29    -26.27     24.00
   13.7336     50.29     47.37    -25.30     24.00
   13.7438     49.17     47.45    -26.50     24.00
   13.7539     48.62     47.53    -27.13     24.00
   13.7641     49.51     47.62    -26.33     24.00
   13.7743     49.83     47.70    -26.09     24.00
   13.7844     49.66     47.78    -26.35     24.00
   13.7946     49.45     47.87    -26.64     24.00
   13.8048     50.54     47.95    -25.63     24.00
   13.8149     50.88     48.04    -25.38     24.00
   13.8251     49.67     48.12    -26.67     24.00
   13.8352     50.24     48.21    -26.19     24.00
   13.8454     50.68     48.29    -25.83     24.00
   13.8556     50.20     48.38    -26.40     24.00
   13.8657     50.34     48.46    -26.34     24.00
   13.8759     49.40     48.55    -27.37     24.00
   13.8861     50.62     48.64    -26.24     24.00
   13.8962     51.24     48.72    -25.70     24.00
   13.9064     51.29     48.81    -25.74     24.00
   13.9166     50.58     48.90    -26.54     24.00
   13.9267     50.08     48.99    -27.13     24.00
   13.9369     50.97     49.07    -26.33     24.00
   13.9471     50.73     49.16    -26.66     24.00
   13.9572     50.35     49.25    -27.12     24.00
   13.9674     50.63     49.34    -26.93     24.00
   13.9776     51.73     49.43    -25.92     24.00
   13.9877     50.75     49.52    -26.99     24.00
   13.9979     51.26     49.61    -26.57     24.00
   14.0080     52.63     49.70    -25.29     24.00
   14.0182     51.60     49.79    -26.41     24.00
   14.0284     52.32     49.88    -25.78     24.00
   14.0385     52.56     49.97    -25.64     24.00
   14.0487     51.26     50.07    -27.03     24.00
   14.0589     51.62     50.16    -26.76     24.00
   14.0690     52.60     50.25    -25.87     24.00
   14.0792     53.24     50.34    -25.33     24.00
   14.0894     52.36     50.44    -26.30     24.00
   14.0995     52.14     50.53    -26.61     24.00
   14.1097     52.01     50.62    -26.84     24.00
   14.1199     52.11     50.72    -26.83     24.00
   14.1300     53.02     50.81    -26.01     24.00
   14.1402     52.55     50.91    -26.58     24.00
   14.1503     52.77     51.00    -26.45     24.00
   14.1605     52.35     51.10    -26.97     24.00
   14.1707     52.81     51.19    -26.61     24.00
   14.1808     53.21     51.29    -26.30     24.00
   14.1910     52.34     51.39    -27.27     24.00
   14.2012     54.85     51.48    -24.86     24.00
   14.2113     52.28     51.58    -27.52     24.00
   14.2215     54.05     51.68    -25.85     24.00
   14.2317     54.12     51.78    -25.88     24.00
   14.2418     53.37     51.88    -26.73     24.00
   14.2520     53.88     51.97    -26.32     24.00
   14.2622     53.74     52.07    -26.56     24.00
   14.2723     54.45     52.17    -25.95     24.00
   14.2825     54.13     52.27    -26.37     24.00
   14.2927     54.31     52.37    -26.29     24.00
   14.3028     55.17     52.47    -25.53     24.00
   14.3130     54.86     52.58    -25.94     24.00
   14.3231     54.65     52.68    -26.25     24.00
   14.3333     53.63     52.78    -27.37     24.00
   14.3435     56.14     52.88    -24.96     24.00
   14.3536     56.00     52.98    -25.21     24.00
   14.3638     56.11     53.09    -25.20     24.00
   14.3740     55.82     53.19    -25.59     24.00
   14.3841     54.59     53.29    -26.93     24.00
   14.3943     54.22     53.40    -27.40     24.00
   14.4045     54.29     53.50    -27.44     24.00
   14.4146     56.26     53.61    -25.57     24.00
   14.4248     56.16     53.71    -25.78     24.00
   14.4350     56.24     53.82    -25.80     24.00
   14.4451     55.78     53.93    -26.37     24.00
   14.4553     55.74     54.03    -26.52     24.00
   14.4654     56.82     54.14    -25.54     24.00
   14.4756     55.93     54.25    -26.54     24.00
   14.4858     56.41     54.36    -26.17     24.00
   14.4959     57.90     54.47    -24.79     24.00
   14.5061     55.96     54.57    -26.84     24.00
   14.5163     56.90     54.68    -26.01     24.00
   14.5264     57.54     54.79    -25.48     24.00
   14.5366     57.54     54.90    -25.59     24.00
   14.5468     57.61     55.02    -25.63     24.00
   14.5569     58.23     55.13    -25.12     24.00
   14.5671     58.58     55.24    -24.88     24.00
   14.5773     57.11     55.35    -26.46     24.00
   14.5874     58.69     55.46    -25.00     24.00
   14.5976     58.09     55.58    -25.71     24.00
   14.6078     58.88     55.69    -25.03     24.00
   14.6179     59.46     55.80    -24.57     24.00
   14.6281     58.85     55.92    -25.29     24.00
   14.6382     58.43     56.03    -25.83     24.00
   14.6484     57.95     56.15    -26.42     24.00
   14.6586     59.01     56.27    -25.48     24.00
   14.6687     59.36     56.38    -25.24     24.00
   14.6789     59.74     56.50    -24.98     24.00
   14.6891     59.07     56.62    -25.77     24.00
   14.6992     58.23     56.73    -26.73     24.00
   14.7094     59.30     56.85    -25.77     24.00
   14.7196     58.48     56.97    -26.71     24.00
   14.7297     60.02     57.09    -25.29     24.00
   14.7399     60.84     57.21    -24.59     24.00
   14.7501     60.59     57.33    -24.96     24.00
   14.7602     60.44     57.45    -25.23     24.00
   14.7704     60.13     57.57    -25.67     24.00
   14.7805     59.88     57.70    -26.04     24.00
   14.7907     60.20     57.82    -25.84     24.00
   14.8009     61.78     57.94    -24.38     24.00
   14.8110     60.79     58.07    -25.50     24.00
   14.8212     60.95     58.19    -25.46     24.00
   14.8314     60.48     58.32    -26.06     24.00
   14.8415     60.58     58.44    -26.08     24.00
   14.8517     60.60     58.57    -26.19     24.00
   14.8619     61.09     58.69    -25.83     24.00
   14.8720     60.47     58.82    -26.57     24.00
   14.8822     61.27     58.95    -25.90     24.00
   14.8924     60.96     59.08    -26.34     24.00
   14.9025     61.79     59.20    -25.64     24.00
   14.9127     61.43     59.33    -26.13     24.00
   14.9229     61.11     59.46    -26.58     24.00
   14.9330     61.51     59.59    -26.31     24.00
   14.9432     61.42     59.73    -26.53     24.00
   14.9533     61.66     59.86    -26.42     24.00
   14.9635     61.81     59.99    -26.40     24.00
   14.9737     62.21     60.12    -26.13     24.00
   14.9838     62.71     60.25    -25.77     24.00
   14.9940     62.85     60.39    -25.76     24.00
   15.0042     62.43     60.52    -26.32     24.00
   15.0143     62.80     60.66    -26.08     24.00
   15.0245     63.98     60.79    -25.04     24.00
   15.0347     62.96     60.93    -26.19     24.00
   15.0448     64.17     61.07    -25.12     24.00
   15.0550     63.03     61.21    -26.40     24.00
   15.0652     63.80     61.35    -25.77     24.00
   15.0753     64.52     61.48    -25.19     24.00
   15.0855     64.01     61.62    -25.84     24.00
   15.0956     65.01     61.76    -24.97     24.00
   15.1058     64.61     61.90    -25.52     24.00
   15.1160     63.88     62.05    -26.39     24.00
   15.1261     64.37     62.19    -26.04     24.00
   15.1363     66.16     62.33    -24.39     24.00
   15.1465     65.22     62.47    -25.48     24.00
   15.1566     63.55     62.62    -27.29     24.00
   15.1668     65.38     62.76    -25.61     24.00
   15.1770     66.36     62.91    -24.77     24.00
   15.1871     65.08     63.05    -26.20     24.00
   15.1973     65.68     63.20    -25.74     24.00
   15.2075     66.13     63.35    -25.44     24.00
   15.2176     65.96     63.50    -25.76     24.00
   15.2278     66.70     63.65    -25.17     24.00
   15.2380     65.23     63.80    -26.79     24.00
   15.2481     66.38     63.95    -25.79     24.00
   15.2583     67.69     64.10    -24.63     24.00
   15.2684     66.73     64.25    -25.74     24.00
   15.2786     67.76     64.40    -24.86     24.00
   15.2888     67.19     64.55    -25.59     24.00
   15.2989     67.63     64.71    -25.30     24.00
   15.3091     66.87     64.86    -26.21     24.00
   15.3193     67.09     65.02    -26.15     24.00
   15.3294     67.38     65.17    -26.02     24.00
   15.3396     67.03     65.33    -26.52     24.00
   15.3498     69.43     65.49    -24.28     24.00
   15.3599     68.61     65.65    -25.26     24.00
   15.3701     68.65     65.80    -25.38     24.00
   15.3803     68.52     65.96    -25.67     24.00
   15.3904     67.15     66.12    -27.20     24.00
   15.4006     66.43     66.29    -28.08     24.00
   15.4107     68.05     66.45    -26.62     24.00
   15.4209     68.46     66.61    -26.37     24.00
   15.4311     68.41     66.77    -26.58     24.00
   15.4412     70.65     66.94    -24.51     24.00
   15.4514     69.00     67.10    -26.32     24.00
   15.4616     70.01     67.27    -25.48     24.00
   15.4717     69.57     67.43    -26.08     24.00
   15.4819     69.01     67.60    -26.81     24.00
   15.4921     70.50     67.77    -25.49     24.00
   15.5022     70.59     67.94    -25.57     24.00
   15.5124     71.09     68.10    -25.24     24.00
   15.5226     70.41     68.28    -26.09     24.00
   15.5327     70.74     68.45    -25.93     24.00
   15.5429     71.45     68.62    -25.39     24.00
   15.5530     71.26     68.79    -25.75     24.00
   15.5632     70.46     68.96    -26.72     24.00
   15.5734     71.68     69.14    -25.68     24.00
   15.5835     70.59     69.31    -26.94     24.00
   15.5937     71.26     69.49    -26.45     24.00
   15.6039     71.16     69.66    -26.72     24.00
   15.6140     72.21     69.84    -25.85     24.00
   15.6242     72.77     70.02    -25.47     24.00
   15.6344     73.40     70.20    -25.02     24.00
   15.6445     71.93     70.37    -26.66     24.00
   15.6547     72.17     70.55    -26.61     24.00
   15.6649     72.65     70.73    -26.31     24.00
   15.6750     72.80     70.92    -26.34     24.00
   15.6852     73.05     71.10    -26.27     24.00
   15.6954     71.45     71.28    -28.05     24.00
   15.7055     73.03     71.46    -26.66     24.00
   15.7157     72.89     71.65    -26.98     24.00
   15.7258     73.82     71.83    -26.24     24.00
   15.7360     73.26     72.02    -26.98     24.00
   15.7462     74.10     72.21    -26.33     24.00
   15.7563     73.35     72.39    -27.27     24.00
   15.7665     75.60     72.58    -25.21     24.00
   15.7767     74.71     72.77    -26.28     24.00
   15.7868     74.58     72.96    -26.60     24.00
   15.7970     76.19     73.15    -25.18     24.00
   15.8072     75.95     73.35    -25.62     24.00
   15.8173     74.04     73.54    -27.72     24.00
   15.8275     75.05     73.73    -26.90     24.00
   15.8377     75.59     73.92    -26.56     24.00
   15.8478     75.24     74.12    -27.10     24.00
   15.8580     76.07     74.31    -26.47     24.00
   15.8681     75.70     74.51    -27.03     24.00
   15.8783     75.21     74.71    -27.72     24.00
   15.8885     77.51     74.90    -25.62     24.00
   15.8986     76.21     75.10    -27.11     24.00
   15.9088     77.29     75.30    -26.23     24.00
   15.9190     75.83     75.50    -27.89     24.00
   15.9291     76.96     75.70    -26.96     24.00
   15.9393     78.08     75.90    -26.04     24.00
   15.9495     77.76     76.10    -26.57     24.00
   15.9596     77.70     76.31    -26.83     24.00
   15.9698     77.01     76.51    -27.72     24.00
   15.9800     77.34     76.71    -27.60     24.00
   15.9901     78.38     76.92    -26.76     24.00
   16.0003     79.79     77.12    -25.56     24.00
   16.0105     79.03     77.33    -26.52     24.00
   16.0206     79.13     77.54    -26.63     24.00
   16.0308     78.26     77.75    -27.71     24.00
   16.0409     79.24     77.95    -26.94     24.00
   16.0511     79.33     78.16    -27.05     24.00
   16.0613     78.14     78.37    -28.46     24.00
   16.0714     79.73     78.58    -27.07     24.00
   16.0816     79.87     78.79    -27.15     24.00
   16.0918     78.61     79.01    -28.62     24.00
   16.1019     80.80     79.22    -26.64     24.00
   16.1121     80.43     79.43    -27.22     24.00
   16.1223     79.72     79.65    -28.15     24.00
   16.1324     80.78     79.86    -27.30     24.00
   16.1426     81.38     80.08    -26.92     24.00
   16.1528     81.55     80.29    -26.96     24.00
   16.1629     81.76     80.51    -26.97     24.00
   16.1731     81.66     80.73    -27.29     24.00
   16.1832     82.01     80.94    -27.15     24.00
   16.1934     81.99     81.16    -27.39     24.00
   16.2036     82.70     81.38    -26.90     24.00
   16.2137     81.04     81.60    -28.78     24.00
   16.2239     82.82     81.82    -27.22     24.00
   16.2341     83.29     82.04    -26.97     24.00
   16.2442     82.68     82.26    -27.80     24.00
   16.2544     83.46     82.48    -27.25     24.00
   16.2646     83.44     82.71    -27.49     24.00
   16.2747     83.86     82.93    -27.29     24.00
   16.2849     83.70     83.15    -27.67     24.00
   16.2951     83.26     83.38    -28.34     24.00
   16.3052     84.29     83.60    -27.53     24.00
   16.3154     84.04     83.83    -28.01     24.00
   16.3256     85.12     84.05    -27.16     24.00
   16.3357     84.36     84.28    -28.14     24.00
   16.3459     86.23     84.51    -26.50     24.00
   16.3560     85.29     84.73    -27.66     24.00
   16.3662     83.12     84.96    -30.06     24.00
   16.3764     85.86     85.19    -27.55     24.00
   16.3865     85.56     85.42    -28.08     24.00
   16.3967     85.91     85.65    -27.96     24.00
   16.4069     85.20     85.88    -28.90     24.00
   16.4170     85.95     86.10    -28.38     24.00
   16.4272     86.38     86.34    -28.18     24.00
   16.4374     86.96     86.57    -27.83     24.00
   16.4475     87.21     86.80    -27.81     24.00
   16.4577     87.48     87.03    -27.77     24.00
   16.4679     86.59     87.26    -28.89     24.00
   16.4780     86.52     87.49    -29.19     24.00
   16.4882     87.84     87.73    -28.11     24.00
   16.4983     87.48     87.96    -28.70     24.00
   16.5085     88.54     88.19    -27.87     24.00
   16.5187     87.35     88.43    -29.30     24.00
   16.5288     87.53     88.66    -29.35     24.00
   16.5390     89.01     88.89    -28.11     24.00
   16.5492     88.52     89.13    -28.83     24.00
   16.5593     89.88     89.36    -27.70     24.00
   16.5695     90.22     89.60    -27.60     24.00
   16.5797     91.15     89.83    -26.91     24.00
   16.5898     90.62     90.07    -27.67     24.00
   16.6000     91.01     90.30    -27.52     24.00
   16.6102     92.40     90.54    -26.36     24.00
   16.6203     90.99     90.78    -28.01     24.00
   16.6305     90.09     91.01    -29.14     24.00
   16.6407     90.68     91.25    -28.79     24.00
   16.6508     91.25     91.48    -28.46     24.00
   16.6610     92.75     91.72    -27.19     24.00
   16.6711     91.15     91.96    -29.03     24.00
   16.6813     91.62     92.19    -28.80     24.00
   16.6915     93.71     92.43    -26.94     24.00
   16.7016     92.62     92.67    -28.27     24.00
   16.7118     93.20     92.91    -27.93     24.00
   16.7220     93.34     93.14    -28.03     24.00
   16.7321     94.07     93.38    -27.53     24.00
   16.7423     94.28     93.62    -27.56     24.00
   16.7525     92.76     93.86    -29.32     24.00
   16.7626     94.75     94.09    -27.56     24.00
   16.7728     93.50     94.33    -29.05     24.00
   16.7830     94.77     94.57    -28.02     24.00
   16.7931     93.93     94.80    -29.10     24.00
   16.8033     94.34     95.04    -28.92     24.00
   16.8134     94.35     95.28    -29.15     24.00
   16.8236     96.84     95.51    -26.90     24.00
   16.8338     95.77     95.75    -28.20     24.00
   16.8439     95.35     95.99    -28.86     24.00
   16.8541     96.98     96.22    -27.47     24.00
   16.8643     95.86     96.46    -28.82     24.00
   16.8744     97.10     96.69    -27.82     24.00
   16.8846     97.57     96.93    -27.58     24.00
   16.8948     95.85     97.17    -29.54     24.00
   16.9049     96.07     97.40    -29.55     24.00
   16.9151     97.29     97.64    -28.57     24.00
   16.9253     97.98     97.87    -28.12     24.00
   16.9354     97.15     98.11    -29.18     24.00
   16.9456     97.85     98.34    -28.71     24.00
   16.9558     97.55     98.58    -29.25     24.00
   16.9659     96.85     98.81    -30.18     24.00
   16.9761     97.26     99.04    -30.01     24.00
   16.9862     97.19     99.27    -30.31     24.00
   16.9964     98.54     99.51    -29.19     24.00
   17.0066     98.12     99.74    -29.84     24.00
   17.0167     98.42     99.97    -29.77     24.00
   17.0269     99.04    100.20    -29.39     24.00
   17.0371    100.82    100.44    -27.84     24.00
   17.0472    100.29    100.67    -28.60     24.00
   17.0574     99.53    100.90    -29.59     24.00
   17.0676     98.59    101.13    -30.76     24.00
   17.0777    100.50    101.36    -29.08     24.00
   17.0879    100.64    101.59    -29.17     24.00
   17.0981    100.33    101.82    -29.71     24.00
   17.1082     99.59    102.04    -30.68     24.00
   17.1184    100.37    102.27    -30.12     24.00
   17.1285    101.55    102.50    -29.17     24.00
   17.1387    100.36    102.73    -30.59     24.00
   17.1489    101.32    102.95    -29.86     24.00
   17.1590    100.76    103.18    -30.64     24.00
   17.1692    100.48    103.40    -31.15     24.00
   17.1794    100.24    103.63    -31.61     24.00
   17.1895    100.71    103.85    -31.37     24.00
   17.1997    102.67    104.08    -29.63     24.00
   17.2099    103.61    104.30    -28.92     24.00
   17.2200    102.20    104.53    -30.55     24.00
   17.2302    102.60    104.75    -30.37     24.00
   17.2404    104.37    104.97    -28.83     24.00
   17.2505    103.02    105.20    -30.40     24.00
   17.2607    103.09    105.42    -30.55     24.00
   17.2709    103.30    105.64    -30.56     24.00
   17.2810    104.91    105.86    -29.17     24.00
   17.2912    104.05    106.08    -30.26     24.00
   17.3013    103.90    106.30    -30.63     24.00
   17.3115    102.95    106.53    -31.80     24.00
   17.3217    104.70    106.75    -30.27     24.00
   17.3318    102.85    106.97    -32.34     24.00
   17.3420    104.42    107.19    -30.99     24.00
   17.3522    104.68    107.41    -30.95     24.00
   17.3623    104.52    107.63    -31.33     24.00
   17.3725    106.54    107.85    -29.53     24.00
   17.3827    105.96    108.07    -30.34     24.00
   17.3928    107.09    108.30    -29.43     24.00
   17.4030    105.70    108.52    -31.04     24.00
   17.4132    107.05    108.74    -29.91     24.00
   17.4233    107.30    108.96    -29.89     24.00
   17.4335    106.70    109.19    -30.71     24.00
   17.4436    109.44    109.41    -28.20     24.00
   17.4538    109.12    109.64    -28.74     24.00
   17.4640    106.76    109.87    -31.33     24.00
   17.4741    108.54    110.10    -29.78     24.00
   17.4843    106.90    110.33    -31.65     24.00
   17.4945    107.70    110.56    -31.09     24.00
   17.5046    108.23    110.80    -30.79     24.00
   17.5148    109.51    111.03    -29.75     24.00
   17.5250    107.88    111.27    -31.62     24.00
   17.5351    109.35    111.52    -30.39     24.00
   17.5453    110.98    111.76    -29.00     24.00
   17.5555    110.04    112.01    -30.19     24.00
   17.5656    111.23    112.26    -29.25     24.00
   17.5758    109.99    112.52    -30.75     24.00
   17.5859    111.01    112.78    -29.99     24.00
   17.5961    113.66    113.04    -27.61     24.00
   17.6063    113.52    113.32    -28.02     24.00
   17.6164    113.48    113.59    -28.33     24.00
   17.6266    112.98    113.88    -29.12     24.00
   17.6368    115.17    114.17    -27.22     24.00
   17.6469    114.68    114.46    -28.00     24.00
   17.6571    114.05    114.77    -28.94     24.00
   17.6673    117.10    115.08    -26.20     24.00
   17.6774    115.32    115.40    -28.30     24.00
   17.6876    115.17    115.73    -28.79     24.00
   17.6978    115.43    116.08    -28.87     24.00
   17.7079    115.30    116.43    -29.35     24.00
   17.7181    117.90    116.80    -27.12     24.00
   17.7283    119.26    117.18    -26.14     24.00
   17.7384    116.99    117.57    -28.80     24.00
   17.7486    118.50    117.98    -27.70     24.00
   17.7587    119.63    118.40    -26.99     24.00
   17.7689    118.37    118.84    -28.69     24.00
   17.7791    120.53    119.30    -26.99     24.00
   17.7892    121.08    119.77    -26.92     24.00
   17.7994    121.98    120.27    -26.52     24.00
   17.8096    122.57    120.79    -26.45     24.00
   17.8197    121.74    121.33    -27.81     24.00
   17.8299    122.34    121.90    -27.78     24.00
   17.8401    122.20    122.49    -28.51     24.00
   17.8502    124.47    123.10    -26.85     24.00
   17.8604    124.63    123.75    -27.34     24.00
   17.8706    124.36    124.42    -28.28     24.00
   17.8807    126.15    125.12    -27.19     24.00
   17.8909    128.13    125.86    -25.95     24.00
   17.9010    127.12    126.62    -27.72     24.00
   17.9112    130.35    127.42    -25.30     24.00
   17.9214    128.79    128.27    -27.70     24.00
   17.9315    129.34    129.14    -28.02     24.00
   17.9417    132.56    130.06    -25.72     24.00
   17.9519    131.74    131.01    -27.50     24.00
   17.9620    133.54    132.01    -26.69     24.00
   17.9722    134.09    133.05    -27.18     24.00
   17.9824    133.13    134.14    -29.24     24.00
   17.9925    135.71    135.27    -27.78     24.00
   18.0027    135.45    136.45    -29.23     24.00
   18.0129    137.84    137.69    -28.07     24.00
   18.0230    139.26    138.96    -27.92     24.00
   18.0332    139.01    140.30    -29.51     24.00
   18.0434    141.03    141.69    -28.88     24.00
   18.0535    140.98    143.12    -30.36     24.00
   18.0637    144.60    144.62    -28.24     24.00
   18.0738    143.99    146.16    -30.39     24.00
   18.0840    145.71    147.77    -30.28     24.00
   18.0942    148.61    149.44    -29.05     24.00
   18.1043    148.12    151.15    -31.25     24.00
   18.1145    148.65    152.94    -32.51     24.00
   18.1247    153.98    154.78    -29.03     24.00
   18.1348    153.50    156.67    -31.39     24.00
   18.1450    153.82    158.63    -33.04     24.00
   18.1552    156.37    160.66    -32.51     24.00
   18.1653    158.44    162.72    -32.50     24.00
   18.1755    159.77    164.86    -33.31     24.00
   18.1857    161.60    167.06    -33.68     24.00
   18.1958    163.31    169.29    -34.20     24.00
   18.2060    164.35    171.60    -35.47     24.00
   18.2161    168.22    173.94    -33.94     24.00
   18.2263    170.77    176.36    -33.81     24.00
   18.2365    171.51    178.83    -35.54     24.00
   18.2466    176.00    181.32    -33.54     24.00
   18.2568    177.58    183.89    -34.53     24.00
   18.2670    179.43    186.50    -35.29     24.00
   18.2771    185.62    189.12    -31.73     24.00
   18.2873    184.68    191.82    -35.36     24.00
   18.2975    185.65    194.54    -37.11     24.00
   18.3076    190.01    197.27    -35.49     24.00
   18.3178    193.24    200.06    -35.04     24.00
   18.3280    195.41    202.87    -35.69     24.00
   18.3381    200.35    205.68    -33.55     24.00
   18.3483    201.70    208.52    -35.04     24.00
   18.3585    200.68    211.38    -38.92     24.00
   18.3686    206.38    214.21    -36.05     24.00
   18.3788    209.71    217.07    -35.58     24.00
   18.3889    210.30    219.89    -37.81     24.00
   18.3991    218.37    222.73    -32.58     24.00
   18.4093    218.55    225.54    -35.22     24.00
   18.4194    220.78    228.30    -35.75     24.00
   18.4296    223.44    231.05    -35.84     24.00
   18.4398    228.37    233.76    -33.61     24.00
   18.4499    229.77    236.39    -34.84     24.00
   18.4601    233.52    238.99    -33.69     24.00
   18.4703    238.44    241.52    -31.30     24.00
   18.4804    238.58    243.94    -33.58     24.00
   18.4906    243.30    246.30    -31.22     24.00
   18.5008    246.52    248.57    -30.27     24.00
   18.5109    244.59    250.71    -34.34     24.00
   18.5211    252.73    252.75    -28.24     24.00
   18.5312    254.03    254.65    -28.84     24.00
   18.5414    254.60    256.44    -30.06     24.00
   18.5516    257.43    258.09    -28.88     24.00
   18.5617    259.56    259.57    -28.23     24.00
   18.5719    262.61    260.91    -26.52     24.00
   18.5821    265.68    262.08    -24.62     24.00
   18.5922    268.05    263.07    -23.25     24.00
   18.6024    266.70    263.90    -25.42     24.00
   18.6126    265.85    264.54    -26.92     24.00
   18.6227    268.16    265.00    -25.06     24.00
   18.6329    267.54    265.27    -25.95     24.00
   18.6431    271.18    265.35    -22.39     24.00
   18.6532    271.67    265.24    -21.79     24.00
   18.6634    270.21    264.95    -22.96     24.00
   18.6736    270.65    264.46    -22.03     24.00
   18.6837    271.26    263.80    -20.76     24.00
   18.6939    266.80    262.95    -24.37     24.00
   18.7040    269.89    261.93    -20.26     24.00
   18.7142    267.84    260.73    -21.12     24.00
   18.7244    262.98    259.37    -24.62     24.00
   18.7345    262.43    257.87    -23.67     24.00
   18.7447    265.32    256.21    -19.11     24.00
   18.7549    258.50    254.41    -24.13     24.00
   18.7650    259.65    252.49    -21.06     24.00
   18.7752    256.59    250.43    -22.06     24.00
   18.7854    252.16    248.26    -24.32     24.00
   18.7955    248.96    246.01    -25.27     24.00
   18.8057    249.96    243.64    -21.90     24.00
   18.8159    243.51    241.19    -25.90     24.00
   18.8260    244.43    238.68    -22.47     24.00
   18.8362    241.05    236.09    -23.26     24.00
   18.8463    235.68    233.46    -26.00     24.00
   18.8565    231.62    230.75    -27.35     24.00
   18.8667    231.09    228.01    -25.14     24.00
   18.8768    225.39    225.25    -28.08     24.00
   18.8870    225.60    222.45    -25.07     24.00
   18.8972    221.16    219.62    -26.68     24.00
   18.9073    215.63    216.81    -29.40     24.00
   18.9175    214.12    213.96    -28.07     24.00
   18.9277    211.63    211.12    -27.71     24.00
   18.9378    207.20    208.31    -29.33     24.00
   18.9480    204.41    205.48    -29.30     24.00
   18.9582    203.72    202.67    -27.17     24.00
   18.9683    199.05    199.91    -29.08     24.00
   18.9785    196.55    197.15    -28.82     24.00
   18.9887    194.23    194.41    -28.40     24.00
   18.9988    189.31    191.74    -30.65     24.00
   19.0090    187.78    189.08    -29.52     24.00
   19.0191    186.51    186.48    -28.19     24.00
   19.0293    182.70    183.90    -29.42     24.00
   19.0395    181.88    181.37    -27.71     24.00
   19.0496    177.60    178.91    -29.53     24.00
   19.0598    175.68    176.47    -29.02     24.00
   19.0700    174.47    174.09    -27.84     24.00
   19.0801    171.10    171.79    -28.91     24.00
   19.0903    169.73    169.52    -28.01     24.00
   19.1005    168.64    167.30    -26.89     24.00
   19.1106    166.80    165.17    -26.59     24.00
   19.1208    163.74    163.07    -27.56     24.00
   19.1310    163.82    161.04    -25.44     24.00
   19.1411    159.90    159.08    -27.40     24.00
   19.1513    157.66    157.17    -27.73     24.00
   19.1614    157.12    155.33    -26.43     24.00
   19.1716    155.92    153.53    -25.84     24.00
   19.1818    153.30    151.80    -26.72     24.00
   19.1919    152.29    150.14    -26.08     24.00
   19.2021    151.53    148.53    -25.22     24.00
   19.2123    149.66    146.98    -25.54     24.00
   19.2224    148.65    145.49    -25.07     24.00
   19.2326    147.62    144.06    -24.66     24.00
   19.2428    146.07    142.68    -24.83     24.00
   19.2529    147.43    141.36    -22.16     24.00
   19.2631    144.32    140.09    -23.99     24.00
   19.2733    143.03    138.88    -24.07     24.00
   19.2834    143.76    137.72    -22.19     24.00
   19.2936    141.39    136.61    -23.44     24.00
   19.3038    140.99    135.55    -22.78     24.00
   19.3139    139.79    134.55    -22.98     24.00
   19.3241    140.45    133.58    -21.35     24.00
   19.3342    138.76    132.67    -22.13     24.00
   19.3444    137.60    131.79    -22.42     24.00
   19.3546    136.41    130.96    -22.77     24.00
   19.3647    135.63    130.18    -22.77     24.00
   19.3749    135.32    129.43    -22.33     24.00
   19.3851    133.38    128.72    -23.56     24.00
   19.3952    133.02    128.05    -23.26     24.00
   19.4054    133.88    127.42    -21.76     24.00
   19.4156    132.38    126.82    -22.66     24.00
   19.4257    133.18    126.26    -21.30     24.00
   19.4359    130.28    125.72    -23.66     24.00
   19.4461    130.94    125.22    -22.50     24.00
   19.4562    129.48    124.75    -23.49     24.00
   19.4664    130.41    124.30    -22.12     24.00
   19.4765    131.00    123.89    -21.11     24.00
   19.4867    128.51    123.50    -23.21     24.00
   19.4969    129.25    123.14    -22.11     24.00
   19.5070    126.67    122.80    -24.35     24.00
   19.5172    128.85    122.48    -21.85     24.00
   19.5274    128.36    122.19    -22.05     24.00
   19.5375    128.53    121.92    -21.61     24.00
   19.5477    126.00    121.67    -23.89     24.00
   19.5579    126.37    121.43    -23.29     24.00
   19.5680    128.04    121.22    -21.41     24.00
   19.5782    124.53    121.03    -24.72     24.00
   19.5884    126.51    120.85    -22.57     24.00
   19.5985    125.24    120.70    -23.68     24.00
   19.6087    125.53    120.55    -23.25     24.00
   19.6188    126.55    120.43    -22.10     24.00
   19.6290    123.97    120.32    -24.57     24.00
   19.6392    123.20    120.22    -25.24     24.00
   19.6493    124.82    120.14    -23.54     24.00
   19.6595    124.83    120.07    -23.47     24.00
   19.6697    123.90    120.02    -24.34     24.00
   19.6798    123.76    119.98    -24.44     24.00
   19.6900    123.83    119.95    -24.35     24.00
   19.7002    123.16    119.94    -25.00     24.00
   19.7103    124.54    119.94    -23.62     24.00
   19.7205    124.82    119.95    -23.35     24.00
   19.7307    124.44    119.98    -23.76     24.00
   19.7408    125.30    120.01    -22.93     24.00
   19.7510    123.09    120.06    -25.19     24.00
   19.7612    125.48    120.12    -22.86     24.00
   19.7713    124.16    120.19    -24.25     24.00
   19.7815    124.13    120.27    -24.36     24.00
   19.7916    123.79    120.37    -24.80     24.00
   19.8018    123.10    120.47    -25.59     24.00
   19.8120    122.45    120.59    -26.36     24.00
   19.8221    124.66    120.71    -24.28     24.00
   19.8323    124.04    120.85    -25.04     24.00
   19.8425    123.92    121.00    -25.31     24.00
   19.8526    122.24    121.16    -27.14     24.00
   19.8628    123.01    121.34    -26.55     24.00
   19.8730    124.43    121.52    -25.31     24.00
   19.8831    122.74    121.71    -27.19     24.00
   19.8933    123.96    121.92    -26.18     24.00
   19.9035    124.95    122.13    -25.40     24.00
   19.9136    123.81    122.36    -26.77     24.00
   19.9238    125.77    122.59    -25.05     24.00
   19.9339    122.51    122.84    -28.55     24.00
   19.9441    123.89    123.10    -27.43     24.00
   19.9543    124.81    123.37    -26.78     24.00
   19.9644    124.94    123.64    -26.93     24.00
   19.9746    124.29    123.94    -27.87     24.00
   19.9848    125.91    124.24    -26.55     24.00
   19.9949    126.75    124.54    -26.02     24.00
   20.0051    125.18    124.86    -27.91     24.00
   20.0153    125.58    125.20    -27.84     24.00
   20.0254    127.77    125.53    -25.98     24.00
   20.0356    126.32    125.88    -27.78     24.00
   20.0458    126.54    126.24    -27.92     24.00
   20.0559    127.04    126.61    -27.79     24.00
   20.0661    126.91    126.98    -28.30     24.00
   20.0763    128.50    127.37    -27.09     24.00
   20.0864    127.80    127.76    -28.18     24.00
   20.0966    127.50    128.16    -28.89     24.00
   20.1067    129.29    128.57    -27.50     24.00
   20.1169    128.94    128.99    -28.27     24.00
   20.1271    129.17    129.41    -28.47     24.00
   20.1372    129.48    129.84    -28.58     24.00
   20.1474    130.38    130.28    -28.12     24.00
   20.1576    130.72    130.72    -28.23     24.00
   20.1677    130.59    131.17    -28.80     24.00
   20.1779    132.72    131.62    -27.13     24.00
   20.1881    129.63    132.08    -30.68     24.00
   20.1982    132.54    132.54    -28.22     24.00
   20.2084    132.07    133.01    -29.16     24.00
   20.2186    133.83    133.48    -27.87     24.00
   20.2287    133.85    133.95    -28.32     24.00
   20.2389    134.19    134.42    -28.45     24.00
   20.2490    133.84    134.89    -29.27     24.00
   20.2592    138.24    135.36    -25.34     24.00
   20.2694    136.61    135.83    -27.45     24.00
   20.2795    134.71    136.30    -29.81     24.00
   20.2897    136.03    136.77    -28.96     24.00
   20.2999    135.09    137.24    -30.37     24.00
   20.3100    137.05    137.70    -28.87     24.00
   20.3202    136.20    138.15    -30.18     24.00
   20.3304    139.86    138.61    -26.97     24.00
   20.3405    138.41    139.05    -28.86     24.00
   20.3507    138.82    139.48    -28.89     24.00
   20.3609    139.71    139.91    -28.42     24.00
   20.3710    138.54    140.33    -30.01     24.00
   20.3812    140.62    140.73    -28.34     24.00
   20.3914    139.80    141.13    -29.55     24.00
   20.4015    140.80    141.51    -28.93     24.00
   20.4117    141.60    141.88    -28.50     24.00
   20.4218    143.42    142.22    -27.03     24.00
   20.4320    143.55    142.56    -27.23     24.00
   20.4422    142.66    142.88    -28.44     24.00
   20.4523    142.68    143.18    -28.72     24.00
   20.4625    143.33    143.46    -28.35     24.00
   20.4727    145.75    143.72    -26.19     24.00
   20.4828    143.25    143.95    -28.92     24.00
   20.4930    143.80    144.17    -28.59     24.00
   20.5032    145.04    144.36    -27.54     24.00
   20.5133    145.00    144.53    -27.75     24.00
   20.5235    144.68    144.67    -28.21     24.00
   20.5337    147.15    144.78    -25.86     24.00
   20.5438    146.25    144.87    -26.84     24.00
   20.5540    145.54    144.94    -27.62     24.00
   20.5641    147.30    144.97    -25.89     24.00
   20.5743    147.84    144.98    -25.36     24.00
   20.5845    144.85    144.96    -28.33     24.00
   20.5946    147.12    144.91    -26.01     24.00
   20.6048    146.50    144.83    -26.56     24.00
   20.6150    145.38    144.73    -27.57     24.00
   20.6251    147.12    144.60    -25.70     24.00
   20.6353    145.14    144.44    -27.52     24.00
   20.6455    144.73    144.25    -27.74     24.00
   20.6556    143.44    144.04    -28.82     24.00
   20.6658    145.73    143.80    -26.29     24.00
   20.6760    144.09    143.54    -27.67     24.00
   20.6861    144.78    143.25    -26.69     24.00
   20.6963    142.38    142.94    -28.78     24.00
   20.7065    143.41    142.60    -27.41     24.00
   20.7166    143.42    142.24    -27.05     24.00
   20.7268    143.41    141.87    -26.68     24.00
   20.7369    141.23    141.47    -28.46     24.00
   20.7471    141.75    141.05    -27.52     24.00
   20.7573    140.43    140.62    -28.41     24.00
   20.7674    139.19    140.17    -29.20     24.00
   20.7776    141.88    139.70    -26.04     24.00
   20.7878    142.09    139.22    -25.35     24.00
   20.7979    140.60    138.73    -26.35     24.00
   20.8081    139.95    138.22    -26.49     24.00
   20.8183    137.34    137.70    -28.58     24.00
   20.8284    137.03    137.18    -28.37     24.00
   20.8386    138.09    136.64    -26.77     24.00
   20.8488    135.20    136.09    -29.11     24.00
   20.8589    131.76    135.54    -32.01     24.00
   20.8691    134.36    134.98    -28.85     24.00
   20.8792    135.19    134.43    -27.46     24.00
   20.8894    131.15    133.86    -30.93     24.00
   20.8996    132.52    133.29    -28.99     24.00
   20.9097    133.12    132.72    -27.82     24.00
   20.9199    131.42    132.14    -28.94     24.00
   20.9301    129.85    131.57    -29.94     24.00
   20.9402    129.54    131.00    -29.68     24.00
   20.9504    127.32    130.42    -31.32     24.00
   20.9606    128.92    129.85    -29.15     24.00
   20.9707    128.43    129.28    -29.07     24.00
   20.9809    126.91    128.71    -30.03     24.00
   20.9911    126.29    128.15    -30.08     24.00
   21.0012    126.30    127.59    -29.52     24.00
   21.0114    126.02    127.04    -29.24     24.00
   21.0216    122.81    126.49    -31.90     24.00
   21.0317    124.94    125.95    -29.23     24.00
   21.0419    121.51    125.41    -32.12     24.00
   21.0520    122.02    124.88    -31.08     24.00
   21.0622    122.94    124.36    -29.64     24.00
   21.0724    121.19    123.84    -30.87     24.00
   21.0825    121.65    123.34    -29.91     24.00
   21.0927    120.32    122.84    -30.74     24.00
   21.1029    118.76    122.34    -31.81     24.00
   21.1130    119.59    121.87    -30.50     24.00
   21.1232    119.29    121.39    -30.33     24.00
   21.1334    118.86    120.93    -30.29     24.00
   21.1435    117.24    120.48    -31.46     24.00
   21.1537    117.10    120.04    -31.16     24.00
   21.1639    116.04    119.61    -31.79     24.00
   21.1740    116.41    119.19    -31.00     24.00
   21.1842    116.34    118.78    -30.66     24.00
   21.1943    113.48    118.38    -33.13     24.00
   21.2045    115.24    118.00    -30.98     24.00
   21.2147    114.20    117.62    -31.64     24.00
   21.2248    113.36    117.26    -32.12     24.00
   21.2350    113.85    116.91    -31.28     24.00
   21.2452    113.46    116.57    -31.33     24.00
   21.2553    112.83    116.24    -31.63     24.00
   21.2655    113.29    115.93    -30.86     24.00
   21.2757    113.52    115.62    -30.33     24.00
   21.2858    112.94    115.34    -30.62     24.00
   21.2960    113.37    115.06    -29.91     24.00
   21.3062    112.55    114.80    -30.47     24.00
   21.3163    110.54    114.55    -32.23     24.00
   21.3265    112.22    114.31    -30.31     24.00
   21.3366    112.12    114.09    -30.19     24.00
   21.3468    110.85    113.88    -31.25     24.00
   21.3570    112.18    113.68    -29.72     24.00
   21.3671    111.75    113.50    -29.97     24.00
   21.3773    111.04    113.33    -30.51     24.00
   21.3875    110.82    113.17    -30.57     24.00
   21.3976    111.99    113.03    -29.26     24.00
   21.4078    111.27    112.90    -29.85     24.00
   21.4180    110.56    112.78    -30.45     24.00
   21.4281    110.93    112.68    -29.98     24.00
   21.4383    110.38    112.60    -30.44     24.00
   21.4485    111.43    112.52    -29.32     24.00
   21.4586    111.69    112.47    -29.00     24.00
   21.4688    110.30    112.42    -30.35     24.00
   21.4790    111.06    112.40    -29.56     24.00
   21.4891    110.78    112.38    -29.82     24.00
   21.4993    111.59    112.38    -29.02     24.00
   21.5094    111.85    112.40    -28.77     24.00
   21.5196    111.46    112.43    -29.19     24.00
   21.5298    110.23    112.48    -30.47     24.00
   21.5399    111.90    112.54    -28.86     24.00
   21.5501    111.23    112.62    -29.61     24.00
   21.5603    109.86    112.71    -31.07     24.00
   21.5704    111.73    112.82    -29.31     24.00
   21.5806    111.45    112.94    -29.72     24.00
   21.5908    113.57    113.09    -27.74     24.00
   21.6009    111.71    113.24    -29.75     24.00
   21.6111    111.30    113.42    -30.34     24.00
   21.6213    110.90    113.61    -30.93     24.00
   21.6314    113.15    113.81    -28.88     24.00
   21.6416    112.75    114.04    -29.51     24.00
   21.6517    112.21    114.28    -30.29     24.00
   21.6619    113.57    114.53    -29.19     24.00
   21.6721    114.41    114.81    -28.62     24.00
   21.6822    112.80    115.10    -30.52     24.00
   21.6924    115.57    115.41    -28.06     24.00
   21.7026    115.36    115.74    -28.60     24.00
   21.7127    115.96    116.08    -28.34     24.00
   21.7229    116.47    116.44    -28.20     24.00
   21.7331    117.31    116.83    -27.74     24.00
   21.7432    118.42    117.22    -27.02     24.00
   21.7534    118.38    117.64    -27.48     24.00
   21.7636    120.40    118.08    -25.90     24.00
   21.7737    117.84    118.53    -28.91     24.00
   21.7839    119.30    119.00    -27.92     24.00
   21.7941    121.61    119.49    -26.10     24.00
   21.8042    121.24    120.00    -26.98     24.00
   21.8144    121.17    120.53    -27.58     24.00
   21.8245    124.12    121.07    -25.17     24.00
   21.8347    123.93    121.63    -25.92     24.00
   21.8449    125.36    122.22    -25.08     24.00
   21.8550    127.29    122.81    -23.74     24.00
   21.8652    125.48    123.43    -26.17     24.00
   21.8754    127.44    124.07    -24.85     24.00
   21.8855    127.61    124.72    -25.33     24.00
   21.8957    127.20    125.39    -26.42     24.00
   21.9059    130.04    126.09    -24.27     24.00
   21.9160    129.68    126.79    -25.33     24.00
   21.9262    129.62    127.51    -26.12     24.00
   21.9364    132.59    128.26    -23.89     24.00
   21.9465    132.82    129.01    -24.41     24.00
   21.9567    134.18    129.79    -23.83     24.00
   21.9668    133.34    130.57    -25.45     24.00
   21.9770    134.38    131.38    -25.22     24.00
   21.9872    133.90    132.20    -26.52     24.00
   21.9973    138.08    133.03    -23.17     24.00
   22.0075    138.51    133.88    -23.60     24.00
   22.0177    137.91    134.75    -25.06     24.00
   22.0278    138.70    135.62    -25.14     24.00
   22.0380    141.47    136.51    -23.26     24.00
   22.0482    140.04    137.41    -25.60     24.00
   22.0583    143.45    138.32    -23.09     24.00
   22.0685    142.27    139.24    -25.20     24.00
   22.0787    143.08    140.18    -25.32     24.00
   22.0888    146.47    141.11    -22.86     24.00
   22.0990    147.91    142.06    -22.38     24.00
   22.1092    146.40    143.02    -24.85     24.00
   22.1193    147.10    143.98    -25.10     24.00
   22.1295    151.96    144.95    -21.21     24.00
   22.1396    150.38    145.91    -23.76     24.00
   22.1498    151.18    146.89    -23.93     24.00
   22.1600    151.98    147.87    -24.11     24.00
   22.1701    152.61    148.84    -24.45     24.00
   22.1803    154.63    149.82    -23.41     24.00
   22.1905    155.58    150.80    -23.44     24.00
   22.2006    154.99    151.77    -25.00     24.00
   22.2108    158.26    152.74    -22.70     24.00
   22.2210    159.65    153.70    -22.27     24.00
   22.2311    159.18    154.65    -23.69     24.00
   22.2413    161.51    155.60    -22.31     24.00
   22.2515    163.16    156.53    -21.59     24.00
   22.2616    161.81    157.45    -23.86     24.00
   22.2718    162.64    158.36    -23.94     24.00
   22.2819    166.21    159.25    -21.26     24.00
   22.2921    164.87    160.12    -23.48     24.00
   22.3023    166.30    160.98    -22.91     24.00
   22.3124    166.76    161.81    -23.27     24.00
   22.3226    166.65    162.63    -24.20     24.00
   22.3328    168.03    163.42    -23.61     24.00
   22.3429    168.20    164.17    -24.19     24.00
   22.3531    168.86    164.90    -24.27     24.00
   22.3633    169.62    165.61    -24.21     24.00
   22.3734    169.86    166.27    -24.63     24.00
   22.3836    168.88    166.91    -26.25     24.00
   22.3938    172.11    167.50    -23.62     24.00
   22.4039    174.02    168.06    -22.26     24.00
   22.4141    169.93    168.58    -26.87     24.00
   22.4243    171.64    169.06    -25.64     24.00
   22.4344    172.23    169.49    -25.48     24.00
   22.4446    169.90    169.88    -28.20     24.00
   22.4547    173.61    170.22    -24.83     24.00
   22.4649    172.62    170.51    -26.11     24.00
   22.4751    172.00    170.76    -26.98     24.00
   22.4852    174.01    170.95    -25.16     24.00
   22.4954    171.18    171.10    -28.14     24.00
   22.5056    171.21    171.19    -28.20     24.00
   22.5157    173.01    171.23    -26.44     24.00
   22.5259    171.07    171.21    -28.36     24.00
   22.5361    168.89    171.14    -30.47     24.00
   22.5462    168.43    171.02    -30.81     24.00
   22.5564    169.33    170.84    -29.74     24.00
   22.5666    166.63    170.61    -32.21     24.00
   22.5767    170.66    170.33    -27.89     24.00
   22.5869    168.96    170.00    -29.26     24.00
   22.5970    165.23    169.61    -32.60     24.00
   22.6072    167.45    169.17    -29.94     24.00
   22.6174    167.59    168.68    -29.31     24.00
   22.6275    165.38    168.14    -30.98     24.00
   22.6377    164.11    167.55    -31.66     24.00
   22.6479    163.63    166.91    -31.51     24.00
   22.6580    161.20    166.24    -33.26     24.00
   22.6682    161.73    165.51    -32.01     24.00
   22.6784    161.50    164.74    -31.47     24.00
   22.6885    157.89    163.94    -34.27     24.00
   22.6987    158.62    163.09    -32.70     24.00
   22.7089    158.82    162.21    -31.61     24.00
   22.7190    156.11    161.30    -33.41     24.00
   22.7292    157.68    160.34    -30.89     24.00
   22.7394    156.70    159.36    -30.88     24.00
   22.7495    153.60    158.35    -32.98     24.00
   22.7597    152.95    157.31    -32.58     24.00
   22.7698    153.91    156.26    -30.57     24.00
   22.7800    149.80    155.16    -33.59     24.00
   22.7902    149.95    154.05    -32.32     24.00
   22.8003    148.97    152.93    -32.18     24.00
   22.8105    145.29    151.78    -34.71     24.00
   22.8207    145.97    150.61    -32.86     24.00
   22.8308    145.57    149.44    -32.09     24.00
   22.8410    143.01    148.25    -33.46     24.00
   22.8512    143.55    147.04    -31.71     24.00
   22.8613    142.37    145.84    -31.69     24.00
   22.8715    141.19    144.62    -31.65     24.00
   22.8817    139.43    143.39    -32.18     24.00
   22.8918    137.59    142.16    -32.80     24.00
   22.9020    138.73    140.93    -30.42     24.00
   22.9121    137.73    139.70    -30.19     24.00
   22.9223    135.78    138.46    -30.90     24.00
   22.9325    133.97    137.22    -31.47     24.00
   22.9426    134.29    135.99    -29.92     24.00
   22.9528    131.35    134.75    -31.62     24.00
   22.9630    130.12    133.52    -31.62     24.00
   22.9731    130.80    132.30    -29.72     24.00
   22.9833    128.60    131.08    -30.70     24.00
   22.9935    127.94    129.86    -30.15     24.00
   23.0036    127.10    128.67    -29.79     24.00
   23.0138    126.48    127.47    -29.21     24.00
   23.0240    125.29    126.28    -29.21     24.00
   23.0341    124.60    125.11    -28.73     24.00
   23.0443    122.50    123.94    -29.66     24.00
   23.0545    119.92    122.78    -31.08     24.00
   23.0646    120.12    121.65    -29.75     24.00
   23.0748    119.63    120.51    -29.11     24.00
   23.0849    118.65    119.40    -28.98     24.00
   23.0951    117.46    118.30    -29.06     24.00
   23.1053    117.22    117.20    -28.21     24.00
   23.1154    114.46    116.14    -29.90     24.00
   23.1256    114.59    115.07    -28.71     24.00
   23.1358    114.62    114.03    -27.63     24.00
   23.1459    114.48    113.00    -26.75     24.00
   23.1561    112.09    111.99    -28.12     24.00
   23.1663    109.69    110.99    -29.52     24.00
   23.1764    109.95    110.02    -28.29     24.00
   23.1866    110.48    109.05    -26.79     24.00
   23.1968    109.51    108.10    -26.81     24.00
   23.2069    108.01    107.17    -27.39     24.00
   23.2171    106.46    106.26    -28.02     24.00
   23.2272    106.02    105.37    -27.57     24.00
   23.2374    107.21    104.49    -25.50     24.00
   23.2476    104.47    103.62    -27.37     24.00
   23.2577    103.54    102.78    -27.46     24.00
   23.2679    103.45    101.95    -26.72     24.00
   23.2781    103.02    101.14    -26.34     24.00
   23.2882    100.80    100.35    -27.77     24.00
   23.2984    101.39     99.57    -26.40     24.00
   23.3086    100.63     98.81    -26.40     24.00
   23.3187    100.14     98.07    -26.15     24.00
   23.3289     98.19     97.34    -27.37     24.00
   23.3391     98.35     96.63    -26.50     24.00
   23.3492     98.02     95.94    -26.14     24.00
   23.3594     95.74     95.26    -27.74     24.00
   23.3695     96.15     94.60    -26.67     24.00
   23.3797     96.04     93.95    -26.13     24.00
   23.3899     96.07     93.32    -25.47     24.00
   23.4000     94.51     92.70    -26.42     24.00
   23.4102     94.71     92.10    -25.61     24.00
   23.4204     94.57     91.51    -25.16     24.00
   23.4305     91.66     90.94    -27.51     24.00
   23.4407     92.02     90.38    -26.59     24.00
   23.4509     90.82     89.84    -27.24     24.00
   23.4610     91.66     89.31    -25.87     24.00
   23.4712     90.41     88.79    -26.60     24.00
   23.4814     89.24     88.29    -27.27     24.00
   23.4915     89.85     87.80    -26.17     24.00
   23.5017     87.21     87.32    -28.33     24.00
   23.5119     88.02     86.85    -27.05     24.00
   23.5220     86.69     86.39    -27.93     24.00
   23.5322     87.45     85.95    -26.72     24.00
   23.5423     86.37     85.52    -27.37     24.00
   23.5525     85.87     85.09    -27.45     24.00
   23.5627     85.26     84.68    -27.64     24.00
   23.5728     84.42     84.28    -28.08     24.00
   23.5830     84.45     83.89    -27.66     24.00
   23.5932     82.83     83.51    -28.90     24.00
   23.6033     83.04     83.14    -28.32     24.00
   23.6135     82.87     82.77    -28.12     24.00
   23.6237     81.82     82.42    -28.82     24.00
   23.6338     80.05     82.07    -30.25     24.00
   23.6440     81.93     81.73    -28.03     24.00
   23.6542     82.15     81.40    -27.48     24.00
   23.6643     80.84     81.08    -28.47     24.00
   23.6745     81.24     80.77    -27.75     24.00
   23.6846     79.62     80.46    -29.06     24.00
   23.6948     79.29     80.16    -29.09     24.00
   23.7050     79.98     79.87    -28.11     24.00
   23.7151     79.26     79.58    -28.54     24.00
   23.7253     76.90     79.30    -30.62     24.00
   23.7355     77.18     79.02    -30.06     24.00
   23.7456     78.12     78.75    -28.86     24.00
   23.7558     78.26     78.49    -28.45     24.00
   23.7660     76.94     78.23    -29.51     24.00
   23.7761     76.34     77.98    -29.86     24.00
   23.7863     75.54     77.73    -30.41     24.00
   23.7965     76.21     77.48    -29.50     24.00
   23.8066     75.79     77.25    -29.68     24.00
   23.8168     75.74     77.01    -29.49     24.00
   23.8270     74.91     76.78    -30.09     24.00
   23.8371     75.88     76.55    -28.90     24.00
   23.8473     73.95     76.33    -30.60     24.00
   23.8574     74.58     76.11    -29.75     24.00
   23.8676     74.21     75.90    -29.91     24.00
   23.8778     73.52     75.68    -30.38     24.00
   23.8879     71.74     75.47    -31.96     24.00
   23.8981     71.44     75.27    -32.05     24.00
   23.9083     72.74     75.06    -30.55     24.00
   23.9184     71.40     74.87    -31.69     24.00
   23.9286     70.98     74.67    -31.91     24.00
   23.9388     70.80     74.47    -31.89     24.00
   23.9489     72.24     74.28    -30.26     24.00
   23.9591     70.94     74.09    -31.37     24.00
   23.9693     69.98     73.90    -32.14     24.00
   23.9794     69.79     73.72    -32.15     24.00
   23.9896     70.20     73.53    -31.56     24.00
   23.9997     69.15     73.36    -32.43     24.00
   24.0099     69.99     73.18    -31.41     24.00
   24.0201     70.80     73.00    -30.42     24.00
   24.0302     69.43     72.82    -31.62     24.00
   24.0404     69.14     72.65    -31.73     24.00
   24.0506     68.20     72.48    -32.50     24.00
   24.0607     68.05     72.31    -32.48     24.00
   24.0709     68.60     72.14    -31.76     24.00
   24.0811     66.15     71.97    -34.04     24.00
   24.0912     67.62     71.81    -32.41     24.00
   24.1014     66.76     71.64    -33.10     24.00
   24.1116     66.20     71.48    -33.50     24.00
   24.1217     66.90     71.32    -32.64     24.00
   24.1319     67.45     71.16    -31.93     24.00
   24.1421     65.83     71.00    -33.39     24.00
   24.1522     65.87     70.84    -33.19     24.00
   24.1624     67.14     70.68    -31.76     24.00
   24.1725     66.78     70.53    -31.97     24.00
   24.1827     66.11     70.37    -32.48     24.00
   24.1929     65.52     70.22    -32.92     24.00
   24.2030     67.15     70.06    -31.14     24.00
   24.2132     63.96     69.91    -34.17     24.00
   24.2234     65.73     69.76    -32.25     24.00
   24.2335     64.98     69.61    -32.85     24.00
   24.2437     64.45     69.46    -33.23     24.00
   24.2539     64.39     69.31    -33.14     24.00
   24.2640     64.11     69.16    -33.28     24.00
   24.2742     65.15     69.02    -32.09     24.00
   24.2844     63.95     68.87    -33.14     24.00
   24.2945     64.26     68.73    -32.69     24.00
   24.3047     64.81     68.58    -31.99     24.00
   24.3148     63.60     68.44    -33.06     24.00
   24.3250     64.03     68.29    -32.49     24.00
   24.3352     64.35     68.15    -32.02     24.00
   24.3453     62.93     68.01    -33.30     24.00
   24.3555     62.45     67.87    -33.64     24.00
   24.3657     62.78     67.73    -33.17     24.00
   24.3758     63.60     67.59    -32.21     24.00
   24.3860     62.27     67.45    -33.40     24.00
   24.3962     63.53     67.31    -32.00     24.00
   24.4063     62.16     67.17    -33.23     24.00
   24.4165     60.45     67.03    -34.81     24.00
   24.4267     62.21     66.90    -32.91     24.00
   24.4368     61.48     66.76    -33.50     24.00
   24.4470     61.30     66.62    -33.55     24.00
   24.4572     60.95     66.49    -33.76     24.00
   24.4673     62.72     66.35    -31.86     24.00
   24.4775     61.43     66.22    -33.01     24.00
   24.4876     61.66     66.09    -32.65     24.00
   24.4978     61.46     65.95    -32.72     24.00
   24.5080     60.52     65.82    -33.52     24.00
   24.5181     61.95     65.69    -31.96     24.00
   24.5283     60.62     65.56    -33.16     24.00
   24.5385     61.73     65.43    -31.92     24.00
   24.5486     61.73     65.30    -31.79     24.00
   24.5588     59.21     65.16    -34.18     24.00
   24.5690     60.84     65.03    -32.42     24.00
   24.5791     59.59     64.91    -33.54     24.00
   24.5893     61.01     64.78    -31.99     24.00
   24.5995     59.36     64.65    -33.51     24.00
   24.6096     59.05     64.52    -33.69     24.00
   24.6198     59.65     64.39    -32.97     24.00
   24.6299     59.40     64.27    -33.09     24.00
   24.6401     59.65     64.14    -32.71     24.00
   24.6503     59.99     64.01    -32.25     24.00
   24.6604     59.59     63.89    -32.52     24.00
   24.6706     60.93     63.76    -31.06     24.00
   24.6808     58.23     63.64    -33.63     24.00
   24.6909     60.37     63.51    -31.37     24.00
   24.7011     59.36     63.39    -32.25     24.00
   24.7113     59.11     63.27    -32.38     24.00
   24.7214     58.64     63.14    -32.73     24.00
   24.7316     59.06     63.02    -32.18     24.00
   24.7418     58.45     62.90    -32.67     24.00
   24.7519     58.86     62.78    -32.14     24.00
   24.7621     58.68     62.66    -32.20     24.00
   24.7723     58.21     62.53    -32.55     24.00
   24.7824     59.16     62.41    -31.48     24.00
   24.7926     58.52     62.29    -32.00     24.00
   24.8027     57.77     62.17    -32.63     24.00
   24.8129     57.48     62.05    -32.80     24.00
   24.8231     57.75     61.94    -32.41     24.00
   24.8332     58.04     61.82    -32.00     24.00
   24.8434     58.15     61.70    -31.77     24.00
   24.8536     58.15     61.58    -31.65     24.00
   24.8637     57.79     61.46    -31.90     24.00
   24.8739     56.12     61.35    -33.45     24.00
   24.8841     56.86     61.23    -32.59     24.00
   24.8942     56.88     61.11    -32.46     24.00
   24.9044     57.25     61.00    -31.97     24.00
   24.9146     57.19     60.88    -31.91     24.00
   24.9247     57.65     60.77    -31.34     24.00
   24.9349     56.49     60.65    -32.38     24.00
   24.9450     56.56     60.54    -32.20     24.00
   24.9552     55.91     60.42    -32.74     24.00
   24.9654     56.34     60.31    -32.19     24.00
   24.9755     57.36     60.20    -31.06     24.00
   24.9857     56.88     60.08    -31.42     24.00
   24.9959     56.47     59.97    -31.72     24.00
   25.0060     56.43     59.86    -31.65     24.00
   25.0162     56.20     59.75    -31.77     24.00
   25.0264     56.20     59.63    -31.66     24.00
   25.0365     56.65     59.52    -31.10     24.00
   25.0467     56.07     59.41    -31.56     24.00
   25.0569     55.95     59.30    -31.57     24.00
   25.0670     56.31     59.19    -31.10     24.00
   25.0772     56.28     59.08    -31.02     24.00
   25.0874     55.72     58.97    -31.47     24.00
   25.0975     55.04     58.86    -32.05     24.00
   25.1077     56.15     58.75    -30.83     24.00
   25.1178     56.48     58.65    -30.39     24.00
   25.1280     55.87     58.54    -30.89     24.00
   25.1382     56.20     58.43    -30.45     24.00
   25.1483     55.07     58.32    -31.48     24.00
   25.1585     55.58     58.22    -30.86     24.00
   25.1687     55.45     58.11    -30.88     24.00
   25.1788     56.90     58.00    -29.33     24.00
   25.1890     55.83     57.90    -30.29     24.00
   25.1992     54.79     57.79    -31.22     24.00
   25.2093     56.26     57.69    -29.65     24.00
   25.2195     55.31     57.58    -30.49     24.00
   25.2297     55.84     57.48    -29.86     24.00
   25.2398     55.93     57.37    -29.66     24.00
   25.2500     55.07     57.27    -30.42     24.00
   25.2601     54.36     57.17    -31.03     24.00
   25.2703     54.91     57.06    -30.37     24.00
   25.2805     56.74     56.96    -28.44     24.00
   25.2906     56.01     56.86    -29.07     24.00
   25.3008     54.94     56.75    -30.04     24.00
   25.3110     55.10     56.65    -29.77     24.00
   25.3211     54.20     56.55    -30.57     24.00
   25.3313     54.91     56.45    -29.76     24.00
   25.3415     54.59     56.35    -29.98     24.00
   25.3516     54.63     56.25    -29.84     24.00
   25.3618     54.40     56.15    -29.97     24.00
   25.3720     55.01     56.05    -29.26     24.00
   25.3821     55.40     55.95    -28.77     24.00
   25.3923     54.77     55.85    -29.30     24.00
   25.4024     54.80     55.75    -29.17     24.00
   25.4126     53.76     55.65    -30.11     24.00
   25.4228     54.84     55.55    -28.93     24.00
   25.4329     54.29     55.45    -29.39     24.00
   25.4431     54.25     55.36    -29.33     24.00
   25.4533     54.85     55.26    -28.63     24.00
   25.4634     53.47     55.16    -29.91     24.00
   25.4736     54.55     55.07    -28.74     24.00
   25.4838     53.92     54.97    -29.27     24.00
   25.4939     53.07     54.87    -30.03     24.00
   25.5041     54.52     54.78    -28.48     24.00
   25.5143     54.34     54.68    -28.56     24.00
   25.5244     53.38     54.59    -29.43     24.00
   25.5346     53.68     54.49    -29.03     24.00
   25.5448     54.66     54.40    -27.96     24.00
   25.5549     53.21     54.30    -29.32     24.00
   25.5651     54.30     54.21    -28.13     24.00
   25.5752     53.76     54.12    -28.58     24.00
   25.5854     53.77     54.02    -28.48     24.00
   25.5956     54.49     53.93    -27.66     24.00
   25.6057     54.00     53.84    -28.06     24.00
   25.6159     53.94     53.75    -28.03     24.00
   25.6261     52.89     53.66    -28.99     24.00
   25.6362     53.61     53.56    -28.18     24.00
   25.6464     53.09     53.47    -28.61     24.00
   25.6566     54.09     53.38    -27.51     24.00
   25.6667     53.83     53.29    -27.68     24.00
   25.6769     53.89     53.20    -27.53     24.00
   25.6871     53.77     53.11    -27.56     24.00
   25.6972     53.50     53.02    -27.75     24.00
   25.7074     53.81     52.93    -27.35     24.00
   25.7175     53.00     52.85    -28.07     24.00
   25.7277     53.88     52.76    -27.10     24.00
   25.7379     52.58     52.67    -28.31     24.00
   25.7480     53.55     52.58    -27.25     24.00
   25.7582     53.94     52.49    -26.78     24.00
   25.7684     52.43     52.41    -28.20     24.00
   25.7785     51.65     52.32    -28.89     24.00
   25.7887     53.70     52.23    -26.76     24.00
   25.7989     53.49     52.15    -26.88     24.00
   25.8090     51.84     52.06    -28.44     24.00
   25.8192     53.31     51.98    -26.89     24.00
   25.8294     51.48     51.89    -28.63     24.00
   25.8395     52.49     51.81    -27.54     24.00
   25.8497     52.61     51.72    -27.33     24.00
   25.8599     51.21     51.64    -28.65     24.00
   25.8700     51.65     51.55    -28.13     24.00
   25.8802     52.62     51.47    -27.07     24.00
   25.8903     51.26     51.39    -28.35     24.00
   25.9005     52.00     51.31    -27.53     24.00
   25.9107     51.96     51.22    -27.48     24.00
   25.9208     52.49     51.14    -26.87     24.00
   25.9310     52.54     51.06    -26.74     24.00
   25.9412     51.37     50.98    -27.83     24.00
   25.9513     50.91     50.90    -28.21     24.00
   25.9615     52.03     50.82    -27.01     24.00
   25.9717     51.80     50.74    -27.16     24.00
   25.9818     51.41     50.66    -27.47     24.00
   25.9920     52.24     50.58    -26.56     24.00
   26.0022     51.87     50.50    -26.85     24.00
   26.0123     50.51     50.42    -28.13     24.00
   26.0225     52.17     50.34    -26.39     24.00
   26.0326     50.95     50.26    -27.53     24.00
   26.0428     52.68     50.18    -25.73     24.00
   26.0530     51.42     50.11    -26.91     24.00
   26.0631     50.27     50.03    -27.98     24.00
   26.0733     51.01     49.95    -27.16     24.00
   26.0835     50.60     49.88    -27.50     24.00
   26.0936     51.49     49.80    -26.53     24.00
   26.1038     50.93     49.72    -27.02     24.00
   26.1140     50.68     49.65    -27.19     24.00
   26.1241     49.74     49.57    -28.06     24.00
   26.1343     49.97     49.50    -27.75     24.00
   26.1445     50.47     49.42    -27.18     24.00
   26.1546     50.85     49.35    -26.72     24.00
   26.1648     50.15     49.28    -27.35     24.00
   26.1750     49.45     49.20    -27.98     24.00
   26.1851     50.62     49.13    -26.73     24.00
   26.1953     49.71     49.06    -27.57     24.00
   26.2054     50.05     48.99    -27.16     24.00
   26.2156     49.93     48.92    -27.21     24.00
   26.2258     49.68     48.84    -27.39     24.00
   26.2359     49.92     48.77    -27.08     24.00
   26.2461     51.69     48.70    -25.23     24.00
   26.2563     50.66     48.63    -26.19     24.00
   26.2664     49.68     48.56    -27.11     24.00
   26.2766     50.07     48.49    -26.65     24.00
   26.2868     48.71     48.42    -27.94     24.00
   26.2969     49.61     48.36    -26.97     24.00
   26.3071     49.55     48.29    -26.96     24.00
   26.3173     50.47     48.22    -25.97     24.00
   26.3274     49.99     48.15    -26.39     24.00
   26.3376     50.49     48.09    -25.82     24.00
   26.3477     49.80     48.02    -26.44     24.00
   26.3579     50.13     47.95    -26.05     24.00
   26.3681     49.00     47.89    -27.11     24.00
   26.3782     48.93     47.82    -27.12     24.00
   26.3884     49.40     47.76    -26.58     24.00
   26.3986     49.02     47.69    -26.90     24.00
   26.4087     49.69     47.63    -26.16     24.00
   26.4189     48.56     47.57    -27.23     24.00
   26.4291     49.09     47.50    -26.64     24.00
   26.4392     48.27     47.44    -27.39     24.00
   26.4494     48.56     47.38    -27.04     24.00
   26.4596     49.37     47.32    -26.17     24.00
   26.4697     48.74     47.26    -26.74     24.00
   26.4799     48.57     47.20    -26.85     24.00
   26.4901     49.13     47.14    -26.23     24.00
   26.5002     48.19     47.08    -27.11     24.00
   26.5104     48.59     47.02    -26.65     24.00
   26.5205     49.09     46.96    -26.09     24.00
   26.5307     48.54     46.90    -26.58     24.00
   26.5409     48.34     46.84    -26.73     24.00
   26.5510     48.18     46.79    -26.83     24.00
   26.5612     48.32     46.73    -26.63     24.00
   26.5714     47.99     46.68    -26.91     24.00
   26.5815     49.43     46.62    -25.41     24.00
   26.5917     48.20     46.57    -26.59     24.00
   26.6019     47.58     46.51    -27.15     24.00
   26.6120     47.62     46.46    -27.06     24.00
   26.6222     48.76     46.41    -25.87     24.00
   26.6324     48.13     46.35    -26.45     24.00
   26.6425     47.66     46.30    -26.87     24.00
   26.6527     48.79     46.25    -25.68     24.00
   26.6628     48.98     46.20    -25.45     24.00
   26.6730     48.07     46.15    -26.31     24.00
   26.6832     48.55     46.11    -25.78     24.00
   26.6933     47.77     46.06    -26.51     24.00
   26.7035     47.71     46.01    -26.52     24.00
   26.7137     47.04     45.96    -27.15     24.00
   26.7238     47.13     45.92    -27.01     24.00
   26.7340     47.29     45.87    -26.81     24.00
   26.7442     47.34     45.83    -26.71     24.00
   26.7543     48.57     45.79    -25.44     24.00
   26.7645     47.95     45.74    -26.02     24.00
   26.7747     47.55     45.70    -26.37     24.00
   26.7848     47.64     45.66    -26.24     24.00
   26.7950     48.67     45.62    -25.18     24.00
   26.8052     46.84     45.58    -26.97     24.00
   26.8153     47.01     45.55    -26.76     24.00
   26.8255     47.93     45.51    -25.80     24.00
   26.8356     47.17     45.47    -26.53     24.00
   26.8458     47.62     45.44    -26.04     24.00
   26.8560     48.26     45.41    -25.37     24.00
   26.8661     47.60     45.37    -26.00     24.00
   26.8763     46.52     45.34    -27.05     24.00
   26.8865     47.90     45.31    -25.64     24.00
   26.8966     47.63     45.28    -25.88     24.00
   26.9068     47.99     45.26    -25.49     24.00
   26.9170     47.28     45.23    -26.17     24.00
   26.9271     46.50     45.21    -26.93     24.00
   26.9373     47.39     45.18    -26.01     24.00
   26.9475     47.55     45.16    -25.83     24.00
   26.9576     46.76     45.14    -26.60     24.00
   26.9678     47.16     45.12    -26.18     24.00
   26.9779     46.81     45.10    -26.51     24.00
   26.9881     46.71     45.09    -26.60     24.00
   26.9983     47.16     45.07    -26.13     24.00
   27.0084     47.84     45.06    -25.44     24.00
   27.0186     46.12     45.05    -27.15     24.00
   27.0288     47.60     45.04    -25.66     24.00
   27.0389     46.93     45.03    -26.32     24.00
   27.0491     46.57     45.02    -26.67     24.00
   27.0593     47.55     45.02    -25.69     24.00
   27.0694     45.88     45.02    -27.36     24.00
   27.0796     46.99     45.01    -26.25     24.00
   27.0898     46.54     45.02    -26.70     24.00
   27.0999     47.03     45.02    -26.21     24.00
   27.1101     47.26     45.03    -25.99     24.00
   27.1202     47.68     45.03    -25.58     24.00
   27.1304     47.68     45.04    -25.59     24.00
   27.1406     46.82     45.06    -26.46     24.00
   27.1507     46.85     45.07    -26.44     24.00
   27.1609     46.54     45.09    -26.77     24.00
   27.1711     46.74     45.11    -26.59     24.00
   27.1812     46.89     45.13    -26.46     24.00
   27.1914     47.23     45.15    -26.14     24.00
   27.2016     47.25     45.18    -26.15     24.00
   27.2117     46.39     45.21    -27.04     24.00
   27.2219     47.63     45.24    -25.83     24.00
   27.2321     46.49     45.28    -27.01     24.00
   27.2422     46.18     45.32    -27.36     24.00
   27.2524     46.37     45.36    -27.21     24.00
   27.2626     46.76     45.40    -26.86     24.00
   27.2727     47.52     45.45    -26.15     24.00
   27.2829     47.15     45.50    -26.57     24.00
   27.2930     47.07     45.55    -26.70     24.00
   27.3032     46.75     45.61    -27.08     24.00
   27.3134     47.84     45.67    -26.05     24.00
   27.3235     48.22     45.73    -25.73     24.00
   27.3337     46.52     45.80    -27.50     24.00
   27.3439     47.57     45.87    -26.52     24.00
   27.3540     47.87     45.94    -26.29     24.00
   27.3642     46.61     46.02    -27.63     24.00
   27.3744     46.66     46.10    -27.66     24.00
   27.3845     47.25     46.18    -27.16     24.00
   27.3947     46.29     46.27    -28.21     24.00
   27.4049     47.59     46.37    -27.00     24.00
   27.4150     47.36     46.46    -27.32     24.00
   27.4252     48.40     46.56    -26.38     24.00
   27.4353     47.31     46.67    -27.58     24.00
   27.4455     47.98     46.77    -27.02     24.00
   27.4557     47.49     46.89    -27.62     24.00
   27.4658     48.11     47.00    -27.12     24.00
   27.4760     47.09     47.13    -28.26     24.00
   27.4862     46.71     47.25    -28.76     24.00
   27.4963     47.51     47.38    -28.09     24.00
   27.5065     47.45     47.51    -28.29     24.00
   27.5167     47.37     47.65    -28.51     24.00
   27.5268     47.82     47.80    -28.20     24.00
   27.5370     48.04     47.94    -28.13     24.00
   27.5472     47.84     48.10    -28.48     24.00
   27.5573     48.66     48.25    -27.81     24.00
   27.5675     47.14     48.41    -29.49     24.00
   27.5777     48.82     48.58    -27.98     24.00
   27.5878     48.24     48.75    -28.73     24.00
   27.5980     48.11     48.92    -29.04     24.00
   27.6081     48.63     49.10    -28.70     24.00
   27.6183     47.79     49.29    -29.72     24.00
   27.6285     48.04     49.48    -29.66     24.00
   27.6386     48.54     49.67    -29.35     24.00
   27.6488     49.32     49.87    -28.77     24.00
   27.6590     49.98     50.08    -28.32     24.00
   27.6691     49.84     50.28    -28.66     24.00
   27.6793     49.34     50.50    -29.38     24.00
   27.6895     49.76     50.71    -29.18     24.00
   27.6996     50.12     50.94    -29.04     24.00
   27.7098     49.48     51.16    -29.91     24.00
   27.7200     50.37     51.40    -29.25     24.00
   27.7301     49.99     51.63    -29.86     24.00
   27.7403     50.93     51.87    -29.17     24.00
   27.7504     50.15     52.12    -30.19     24.00
   27.7606     50.04     52.37    -30.55     24.00
   27.7708     50.92     52.63    -29.93     24.00
   27.7809     51.23     52.88    -29.87     24.00
   27.7911     51.45     53.15    -29.92     24.00
   27.8013     51.12     53.42    -30.52     24.00
   27.8114     50.62     53.69    -31.29     24.00
   27.8216     51.36     53.96    -30.83     24.00
   27.8318     52.20     54.25    -30.27     24.00
   27.8419     51.23     54.53    -31.52     24.00
   27.8521     53.15     54.82    -29.89     24.00
   27.8623     53.09     55.11    -30.24     24.00
   27.8724     53.03     55.40    -30.60     24.00
   27.8826     53.45     55.71    -30.48     24.00
   27.8928     53.34     56.01    -30.89     24.00
   27.9029     53.71     56.31    -30.83     24.00
   27.9131     54.01     56.62    -30.84     24.00
   27.9232     55.01     56.93    -30.15     24.00
   27.9334     55.38     57.25    -30.09     24.00
   27.9436     54.34     57.57    -31.45     24.00
   27.9537     54.91     57.89    -31.20     24.00
   27.9639     56.20     58.21    -30.24     24.00
   27.9741     56.72     58.54    -30.04     24.00
   27.9842     54.95     58.87    -32.14     24.00
   27.9944     56.51     59.20    -30.91     24.00
   28.0046     57.04     59.53    -30.71     24.00
   28.0147     56.95     59.86    -31.13     24.00
   28.0249     57.04     60.19    -31.38     24.00
   28.0351     57.86     60.53    -30.89     24.00
   28.0452     59.20     60.86    -29.89     24.00
   28.0554     58.04     61.20    -31.38     24.00
   28.0655     58.15     61.54    -31.61     24.00
   28.0757     59.08     61.87    -31.02     24.00
   28.0859     60.32     62.21    -30.11     24.00
   28.0960     59.29     62.55    -31.48     24.00
   28.1062     61.12     62.88    -29.98     24.00
   28.1164     61.20     63.22    -30.24     24.00
   28.1265     59.49     63.55    -32.28     24.00
   28.1367     61.95     63.88    -30.15     24.00
   28.1469     61.23     64.21    -31.20     24.00
   28.1570     62.41     64.53    -30.35     24.00
   28.1672     62.80     64.86    -30.28     24.00
   28.1774     63.87     65.18    -29.53     24.00
   28.1875     64.90     65.50    -28.82     24.00
   28.1977     63.21     65.81    -30.82     24.00
   28.2079     65.73     66.12    -28.61     24.00
   28.2180     64.45     66.43    -30.20     24.00
   28.2282     65.54     66.73    -29.41     24.00
   28.2383     66.88     67.02    -28.36     24.00
   28.2485     66.42     67.31    -29.11     24.00
   28.2587     66.93     67.60    -28.89     24.00
   28.2688     67.23     67.87    -28.86     24.00
   28.2790     67.86     68.14    -28.50     24.00
   28.2892     69.16     68.41    -27.47     24.00
   28.2993     68.26     68.66    -28.62     24.00
   28.3095     70.02     68.91    -27.11     24.00
   28.3197     70.11     69.15    -27.26     24.00
   28.3298     69.15     69.38    -28.45     24.00
   28.3400     69.21     69.60    -28.61     24.00
   28.3502     70.25     69.81    -27.78     24.00
   28.3603     70.48     70.01    -27.76     24.00
   28.3705     71.93     70.21    -26.50     24.00
   28.3806     70.88     70.39    -27.73     24.00
   28.3908     71.62     70.56    -27.16     24.00
   28.4010     71.02     70.72    -27.92     24.00
   28.4111     72.40     70.86    -26.68     24.00
   28.4213     72.20     71.00    -27.02     24.00
   28.4315     71.82     71.12    -27.52     24.00
   28.4416     72.16     71.23    -27.29     24.00
   28.4518     72.38     71.33    -27.17     24.00
   28.4620     72.41     71.42    -27.23     24.00
   28.4721     72.92     71.49    -26.79     24.00
   28.4823     73.27     71.55    -26.50     24.00
   28.4925     72.91     71.59    -26.91     24.00
   28.5026     74.10     71.63    -25.75     24.00
   28.5128     73.03     71.65    -26.84     24.00
   28.5230     72.40     71.65    -27.47     24.00
   28.5331     74.24     71.64    -25.63     24.00
   28.5433     73.81     71.62    -26.03     24.00
   28.5534     73.89     71.59    -25.92     24.00
   28.5636     72.95     71.54    -26.81     24.00
   28.5738     73.16     71.48    -26.54     24.00
   28.5839     71.91     71.40    -27.71     24.00
   28.5941     73.21     71.31    -26.32     24.00
   28.6043     72.77     71.21    -26.66     24.00
   28.6144     73.51     71.10    -25.81     24.00
   28.6246     72.21     70.97    -26.98     24.00
   28.6348     71.30     70.83    -27.75     24.00
   28.6449     71.38     70.68    -27.52     24.00
   28.6551     72.53     70.52    -26.21     24.00
   28.6653     71.51     70.34    -27.05     24.00
   28.6754     71.36     70.16    -27.02     24.00
   28.6856     70.52     69.96    -27.66     24.00
   28.6957     72.09     69.75    -25.88     24.00
   28.7059     70.73     69.53    -27.03     24.00
   28.7161     70.21     69.31    -27.32     24.00
   28.7262     71.30     69.07    -25.99     24.00
   28.7364     69.22     68.82    -27.83     24.00
   28.7466     70.10     68.57    -26.69     24.00
   28.7567     69.43     68.31    -27.10     24.00
   28.7669     68.77     68.03    -27.49     24.00
   28.7771     68.94     67.75    -27.04     24.00
   28.7872     69.29     67.47    -26.40     24.00
   28.7974     68.71     67.18    -26.69     24.00
   28.8076     68.28     66.88    -26.82     24.00
   28.8177     67.76     66.57    -27.04     24.00
   28.8279     67.62     66.26    -26.86     24.00
   28.8381     66.92     65.94    -27.25     24.00
   28.8482     66.65     65.63    -27.20     24.00
   28.8584     66.80     65.30    -26.72     24.00
   28.8685     65.40     64.97    -27.79     24.00
   28.8787     64.49     64.64    -28.37     24.00
   28.8889     64.90     64.30    -27.62     24.00
   28.8990     64.04     63.96    -28.14     24.00
   28.9092     63.35     63.62    -28.49     24.00
   28.9194     63.46     63.27    -28.04     24.00
   28.9295     62.63     62.93    -28.52     24.00
   28.9397     62.15     62.58    -28.65     24.00
   28.9499     62.91     62.23    -27.54     24.00
   28.9600     62.90     61.88    -27.20     24.00
   28.9702     60.75     61.52    -29.00     24.00
   28.9804     61.26     61.17    -28.13     24.00
   28.9905     60.50     60.82    -28.54     24.00
   29.0007     61.06     60.46    -27.63     24.00
   29.0108     59.63     60.11    -28.71     24.00
   29.0210     59.06     59.76    -28.92     24.00
   29.0312     59.45     59.41    -28.18     24.00
   29.0413     59.05     59.06    -28.23     24.00
   29.0515     59.57     58.71    -27.36     24.00
   29.0617     58.60     58.36    -27.98     24.00
   29.0718     58.68     58.01    -27.55     24.00
   29.0820     57.83     57.66    -28.06     24.00
   29.0922     56.76     57.32    -28.78     24.00
   29.1023     56.72     56.98    -28.48     24.00
   29.1125     55.88     56.64    -28.98     24.00
   29.1227     56.16     56.30    -28.36     24.00
   29.1328     55.51     55.97    -28.68     24.00
   29.1430     54.38     55.64    -29.48     24.00
   29.1531     56.11     55.31    -27.42     24.00
   29.1633     55.43     54.98    -27.77     24.00
   29.1735     54.54     54.66    -28.34     24.00
   29.1836     53.59     54.34    -28.97     24.00
   29.1938     54.49     54.02    -27.75     24.00
   29.2040     54.01     53.71    -27.92     24.00
   29.2141     52.82     53.40    -28.80     24.00
   29.2243     52.93     53.09    -28.38     24.00
   29.2345     51.74     52.79    -29.27     24.00
   29.2446     53.74     52.49    -26.97     24.00
   29.2548     51.36     52.19    -29.06     24.00
   29.2650     52.21     51.90    -27.91     24.00
   29.2751     51.07     51.62    -28.77     24.00
   29.2853     51.07     51.33    -28.49     24.00
   29.2955     51.49     51.05    -27.79     24.00
   29.3056     50.78     50.78    -28.22     24.00
   29.3158     49.59     50.51    -29.14     24.00
   29.3259     50.26     50.24    -28.21     24.00
   29.3361     50.73     49.98    -27.47     24.00
   29.3463     50.70     49.72    -27.24     24.00
   29.3564     49.71     49.47    -27.98     24.00
   29.3666     50.44     49.22    -27.00     24.00
   29.3768     48.98     48.97    -28.21     24.00
   29.3869     48.59     48.73    -28.37     24.00
   29.3971     48.92     48.50    -27.80     24.00
   29.4073     48.99     48.26    -27.49     24.00
   29.4174     48.16     48.04    -28.10     24.00
   29.4276     48.34     47.81    -27.69     24.00
   29.4378     47.26     47.59    -28.55     24.00
   29.4479     48.78     47.38    -26.82     24.00
   29.4581     48.29     47.16    -27.10     24.00
   29.4682     47.39     46.96    -27.79     24.00
   29.4784     47.41     46.75    -27.57     24.00
   29.4886     46.85     46.56    -27.93     24.00
   29.4987     46.49     46.36    -28.09     24.00
   29.5089     46.45     46.17    -27.94     24.00
   29.5191     46.81     45.98    -27.40     24.00
   29.5292     46.49     45.80    -27.53     24.00
   29.5394     45.92     45.62    -27.92     24.00
   29.5496     45.93     45.45    -27.74     24.00
   29.5597     45.65     45.28    -27.85     24.00
   29.5699     46.73     45.11    -26.60     24.00
   29.5801     45.79     44.94    -27.38     24.00
   29.5902     45.23     44.79    -27.78     24.00
   29.6004     45.43     44.63    -27.42     24.00
   29.6106     45.37     44.47    -27.33     24.00
   29.6207     44.78     44.33    -27.77     24.00
   29.6309     44.88     44.18    -27.52     24.00
   29.6410     45.15     44.04    -27.11     24.00
   29.6512     44.23     43.90    -27.89     24.00
   29.6614     44.95     43.76    -27.03     24.00
   29.6715     45.44     43.63    -26.41     24.00
   29.6817     43.74     43.50    -27.98     24.00
   29.6919     46.32     43.37    -25.27     24.00
   29.7020     44.59     43.25    -26.88     24.00
   29.7122     44.29     43.13    -27.06     24.00
   29.7224     43.57     43.01    -27.66     24.00
   29.7325     44.01     42.89    -27.11     24.00
   29.7427     44.10     42.78    -26.90     24.00
   29.7529     44.64     42.67    -26.25     24.00
   29.7630     44.48     42.56    -26.30     24.00
   29.7732     42.99     42.46    -27.69     24.00
   29.7833     43.11     42.35    -27.47     24.00
   29.7935     44.62     42.25    -25.86     24.00
   29.8037     42.95     42.15    -27.43     24.00
   29.8138     43.24     42.06    -27.04     24.00
   29.8240     43.12     41.96    -27.07     24.00
   29.8342     43.48     41.87    -26.61     24.00
   29.8443     42.52     41.78    -27.48     24.00
   29.8545     43.40     41.69    -26.52     24.00
   29.8647     42.76     41.61    -27.07     24.00
   29.8748     43.16     41.52    -26.59     24.00
   29.8850     43.08     41.44    -26.58     24.00
   29.8952     43.02     41.36    -26.56     24.00
   29.9053     43.20     41.28    -26.30     24.00
   29.9155     43.67     41.20    -25.75     24.00
   29.9257     43.63     41.12    -25.72     24.00
   29.9358     42.79     41.05    -26.48     24.00
   29.9460     43.13     40.98    -26.07     24.00
   29.9561     43.17     40.90    -25.96     24.00
   29.9663     43.21     40.83    -25.84     24.00
   29.9765     43.37     40.76    -25.61     24.00
   29.9866     42.09     40.69    -26.83     24.00
   29.9968     41.99     40.63    -26.86     24.00
   30.0070     41.73     40.56    -27.05     24.00
   30.0171     42.55     40.49    -26.17     24.00
   30.0273     41.86     40.43    -26.79     24.00
   30.0375     41.68     40.36    -26.91     24.00
   30.0476     41.55     40.30    -26.97     24.00
   30.0578     42.35     40.24    -26.11     24.00
   30.0680     41.91     40.18    -26.49     24.00
   30.0781     42.17     40.12    -26.17     24.00
   30.0883     41.44     40.06    -26.84     24.00
   30.0984     41.94     40.00    -26.28     24.00
   30.1086     41.07     39.94    -27.09     24.00
   30.1188     41.77     39.88    -26.33     24.00
   30.1289     41.91     39.82    -26.13     24.00
   30.1391     41.89     39.76    -26.10     24.00
   30.1493     40.93     39.71    -27.00     24.00
   30.1594     42.24     39.65    -25.63     24.00
   30.1696     39.95     39.59    -27.87     24.00
   30.1798     41.60     39.54    -26.16     24.00
   30.1899     40.04     39.48    -27.67     24.00
   30.2001     40.35     39.43    -27.30     24.00
   30.2103     41.72     39.37    -25.88     24.00
   30.2204     40.58     39.32    -26.96     24.00
   30.2306     39.78     39.27    -27.71     24.00
   30.2408     40.26     39.21    -27.17     24.00
   30.2509     40.12     39.16    -27.26     24.00
   30.2611     40.42     39.10    -26.91     24.00
   30.2712     40.65     39.05    -26.62     24.00
   30.2814     40.22     39.00    -27.00     24.00
   30.2916     39.88     38.94    -27.29     24.00
   30.3017     40.03     38.89    -27.08     24.00
   30.3119     38.93     38.84    -28.13     24.00
   30.3221     39.66     38.79    -27.35     24.00
   30.3322     39.70     38.73    -27.26     24.00
   30.3424     38.85     38.68    -28.05     24.00
   30.3526     39.65     38.63    -27.20     24.00
   30.3627     39.18     38.58    -27.62     24.00
   30.3729     39.81     38.52    -26.94     24.00
   30.3831     38.30     38.47    -28.39     24.00
   30.3932     38.15     38.42    -28.49     24.00
   30.4034     38.26     38.37    -28.33     24.00
   30.4135     38.16     38.32    -28.38     24.00
   30.4237     38.77     38.26    -27.72     24.00
   30.4339     37.90     38.21    -28.53     24.00
   30.4440     37.90     38.16    -28.48     24.00
   30.4542     38.40     38.11    -27.93     24.00
   30.4644     37.65     38.06    -28.63     24.00
   30.4745     37.97     38.00    -28.26     24.00
   30.4847     37.92     37.95    -28.25     24.00
   30.4949     38.09     37.90    -28.03     24.00
   30.5050     37.51     37.85    -28.56     24.00
   30.5152     37.90     37.80    -28.12     24.00
   30.5254     37.31     37.74    -28.66     24.00
   30.5355     36.71     37.69    -29.20     24.00
   30.5457     37.61     37.64    -28.25     24.00
   30.5559     37.56     37.59    -28.25     24.00
   30.5660     36.45     37.54    -29.31     24.00
   30.5762     35.77     37.48    -29.94     24.00
   30.5863     37.52     37.43    -28.13     24.00
   30.5965     36.23     37.38    -29.37     24.00
   30.6067     36.51     37.33    -29.04     24.00
   30.6168     36.80     37.28    -28.70     24.00
   30.6270     35.72     37.22    -29.73     24.00
   30.6372     37.27     37.17    -28.12     24.00
   30.6473     36.49     37.12    -28.85     24.00
   30.6575     36.58     37.07    -28.71     24.00
   30.6677     36.41     37.02    -28.83     24.00
   30.6778     36.39     36.97    -28.80     24.00
   30.6880     35.95     36.91    -29.19     24.00
   30.6982     35.76     36.86    -29.32     24.00
   30.7083     36.02     36.81    -29.01     24.00
   30.7185     36.66     36.76    -28.32     24.00
   30.7286     35.78     36.71    -29.15     24.00
   30.7388     35.72     36.66    -29.16     24.00
   30.7490     34.99     36.60    -29.84     24.00
   30.7591     35.26     36.55    -29.52     24.00
   30.7693     35.74     36.50    -28.98     24.00
   30.7795     35.40     36.45    -29.27     24.00
   30.7896     35.05     36.40    -29.57     24.00
   30.7998     34.65     36.35    -29.92     24.00
   30.8100     34.37     36.30    -30.15     24.00
   30.8201     35.49     36.25    -28.98     24.00
   30.8303     35.71     36.20    -28.71     24.00
   30.8405     34.84     36.15    -29.53     24.00
   30.8506     35.91     36.10    -28.41     24.00
   30.8608     35.26     36.05    -29.01     24.00
   30.8710     35.87     35.99    -28.35     24.00
   30.8811     34.77     35.95    -29.40     24.00
   30.8913     35.64     35.90    -28.48     24.00
   30.9014     34.51     35.85    -29.56     24.00
   30.9116     34.34     35.80    -29.68     24.00
   30.9218     35.05     35.75    -28.92     24.00
   30.9319     34.51     35.70    -29.41     24.00
   30.9421     33.97     35.65    -29.90     24.00
   30.9523     34.96     35.60    -28.86     24.00
   30.9624     34.02     35.55    -29.75     24.00
   30.9726     34.23     35.50    -29.49     24.00
   30.9828     35.49     35.45    -28.19     24.00
   30.9929     33.62     35.41    -30.01     24.00
   31.0031     34.86     35.36    -28.72     24.00
   31.0133     34.27     35.31    -29.26     24.00
   31.0234     33.99     35.26    -29.49     24.00
   31.0336     33.91     35.21    -29.53     24.00
   31.0437     33.90     35.17    -29.49     24.00
   31.0539     33.65     35.12    -29.69     24.00
   31.0641     34.16     35.07    -29.14     24.00
   31.0742     34.20     35.03    -29.05     24.00
   31.0844     34.04     34.98    -29.16     24.00
   31.0946     34.23     34.93    -28.93     24.00
   31.1047     33.63     34.89    -29.48     24.00
   31.1149     32.96     34.84    -30.11     24.00
   31.1251     33.90     34.80    -29.12     24.00
   31.1352     33.59     34.75    -29.39     24.00
   31.1454     33.12     34.71    -29.81     24.00
   31.1556     33.43     34.66    -29.46     24.00
   31.1657     33.43     34.62    -29.41     24.00
   31.1759     32.87     34.58    -29.93     24.00
   31.1860     34.02     34.53    -28.73     24.00
   31.1962     33.87     34.49    -28.84     24.00
   31.2064     32.63     34.44    -30.04     24.00
   31.2165     32.62     34.40    -30.00     24.00
   31.2267     33.14     34.36    -29.44     24.00
   31.2369     32.96     34.32    -29.58     24.00
   31.2470     33.04     34.28    -29.46     24.00
   31.2572     33.02     34.23    -29.44     24.00
   31.2674     32.80     34.19    -29.61     24.00
   31.2775     32.43     34.15    -29.94     24.00
   31.2877     33.65     34.11    -28.68     24.00
   31.2979     33.16     34.07    -29.13     24.00
   31.3080     32.67     34.03    -29.58     24.00
   31.3182     33.66     33.99    -28.55     24.00
   31.3284     33.10     33.95    -29.07     24.00
   31.3385     33.60     33.91    -28.53     24.00
   31.3487     34.05     33.87    -28.04     24.00
   31.3588     31.99     33.83    -30.06     24.00
   31.3690     32.57     33.79    -29.45     24.00
   31.3792     32.43     33.76    -29.55     24.00
   31.3893     32.83     33.72    -29.11     24.00
   31.3995     32.16     33.68    -29.74     24.00
   31.4097     32.73     33.64    -29.13     24.00
   31.4198     32.43     33.61    -29.40     24.00
   31.4300     33.04     33.57    -28.75     24.00
   31.4402     33.01     33.53    -28.75     24.00
   31.4503     32.57     33.50    -29.15     24.00
   31.4605     32.70     33.46    -28.98     24.00
   31.4707     32.13     33.43    -29.52     24.00
   31.4808     31.90     33.39    -29.71     24.00
   31.4910     32.65     33.36    -28.93     24.00
   31.5011     32.73     33.32    -28.82     24.00
   31.5113     32.62     33.29    -28.89     24.00
   31.5215     31.49     33.26    -29.99     24.00
   31.5316     32.93     33.22    -28.52     24.00
   31.5418     31.54     33.19    -29.87     24.00
   31.5520     33.11     33.16    -28.27     24.00
   31.5621     31.97     33.13    -29.38     24.00
   31.5723     32.45     33.09    -28.87     24.00
   31.5825     32.95     33.06    -28.33     24.00
   31.5926     32.89     33.03    -28.36     24.00
   31.6028     32.84     33.00    -28.38     24.00
   31.6130     32.07     32.97    -29.12     24.00
   31.6231     31.76     32.94    -29.40     24.00
   31.6333     32.11     32.91    -29.02     24.00
   31.6435     33.18     32.88    -27.92     24.00
   31.6536     32.08     32.85    -28.99     24.00
   31.6638     32.68     32.82    -28.37     24.00
   31.6739     32.66     32.80    -28.36     24.00
   31.6841     31.82     32.77    -29.17     24.00
   31.6943     31.86     32.74    -29.10     24.00
   31.7044     32.48     32.71    -28.46     24.00
   31.7146     32.55     32.69    -28.36     24.00
   31.7248     32.93     32.66    -27.95     24.00
   31.7349     32.23     32.63    -28.63     24.00
   31.7451     32.74     32.61    -28.09     24.00
   31.7553     31.75     32.58    -29.05     24.00
   31.7654     32.12     32.56    -28.66     24.00
   31.7756     31.63     32.53    -29.12     24.00
   31.7858     31.90     32.51    -28.83     24.00
   31.7959     32.16     32.48    -28.54     24.00
   31.8061     32.62     32.46    -28.06     24.00
   31.8162     31.77     32.44    -28.89     24.00
   31.8264     32.63     32.41    -28.00     24.00
   31.8366     32.01     32.39    -28.60     24.00
   31.8467     32.71     32.37    -27.88     24.00
   31.8569     33.07     32.34    -27.50     24.00
   31.8671     32.70     32.32    -27.84     24.00
   31.8772     31.76     32.30    -28.76     24.00
   31.8874     32.38     32.28    -28.12     24.00
   31.8976     33.42     32.26    -27.06     24.00
   31.9077     31.85     32.24    -28.61     24.00
   31.9179     32.35     32.22    -28.09     24.00
   31.9281     31.52     32.20    -28.90     24.00
   31.9382     31.20     32.18    -29.20     24.00
   31.9484     32.70     32.16    -27.68     24.00
   31.9586     32.40     32.14    -27.96     24.00
   31.9687     31.90     32.12    -28.44     24.00
   31.9789     32.18     32.10    -28.14     24.00
   31.9890     32.73     32.08    -27.57     24.00
   31.9992     32.54     32.06    -27.75     24.00
   32.0094     32.37     32.05    -27.90     24.00
   32.0195     32.09     32.03    -28.16     24.00
   32.0297     32.43     32.01    -27.80     24.00
   32.0399     31.91     32.00    -28.31     24.00
   32.0500     32.46     31.98    -27.74     24.00
   32.0602     33.02     31.96    -27.16     24.00
   32.0704     32.61     31.95    -27.56     24.00
   32.0805     33.38     31.93    -26.77     24.00
   32.0907     32.01     31.92    -28.13     24.00
   32.1009     32.14     31.90    -27.98     24.00
   32.1110     33.00     31.89    -27.11     24.00
   32.1212     32.86     31.87    -27.23     24.00
   32.1313     32.88     31.86    -27.20     24.00
   32.1415     33.01     31.84    -27.05     24.00
   32.1517     31.90     31.83    -28.15     24.00
   32.1618     32.38     31.81    -27.66     24.00
   32.1720     32.26     31.80    -27.76     24.00
   32.1822     32.43     31.79    -27.58     24.00
   32.1923     32.74     31.78    -27.26     24.00
   32.2025     32.26     31.76    -27.72     24.00
   32.2127     32.19     31.75    -27.78     24.00
   32.2228     32.71     31.74    -27.25     24.00
   32.2330     32.30     31.73    -27.65     24.00
   32.2432     32.55     31.71    -27.39     24.00
   32.2533     32.21     31.70    -27.71     24.00
   32.2635     32.59     31.69    -27.32     24.00
   32.2737     33.38     31.68    -26.52     24.00
   32.2838     33.29     31.67    -26.60     24.00
   32.2940     32.65     31.66    -27.23     24.00
   32.3041     32.21     31.65    -27.66     24.00
   32.3143     32.30     31.64    -27.56     24.00
   32.3245     32.38     31.63    -27.47     24.00
   32.3346     32.56     31.62    -27.28     24.00
   32.3448     33.51     31.61    -26.32     24.00
   32.3550     33.24     31.60    -26.58     24.00
   32.3651     32.80     31.59    -27.01     24.00
   32.3753     33.09     31.58    -26.71     24.00
   32.3855     33.68     31.57    -26.11     24.00
   32.3956     32.58     31.56    -27.20     24.00
   32.4058     32.37     31.55    -27.40     24.00
   32.4160     33.32     31.54    -26.44     24.00
   32.4261     32.86     31.53    -26.89     24.00
   32.4363     32.53     31.52    -27.22     24.00
   32.4464     32.63     31.52    -27.11     24.00
   32.4566     33.45     31.51    -26.28     24.00
   32.4668     33.18     31.50    -26.54     24.00
   32.4769     32.27     31.49    -27.44     24.00
   32.4871     32.89     31.48    -26.81     24.00
   32.4973     32.82     31.48    -26.88     24.00
   32.5074     33.26     31.47    -26.43     24.00
   32.5176     33.12     31.46    -26.56     24.00
   32.5278     32.84     31.45    -26.83     24.00
   32.5379     32.83     31.44    -26.84     24.00
   32.5481     32.77     31.44    -26.89     24.00
   32.5583     33.59     31.43    -26.06     24.00
   32.5684     33.06     31.42    -26.58     24.00
   32.5786     31.98     31.41    -27.66     24.00
   32.5888     32.01     31.41    -27.62     24.00
   32.5989     33.01     31.40    -26.61     24.00
   32.6091     31.93     31.39    -27.69     24.00
   32.6192     33.27     31.39    -26.34     24.00
   32.6294     32.74     31.38    -26.86     24.00
   32.6396     31.81     31.37    -27.78     24.00
   32.6497     32.93     31.37    -26.66     24.00
   32.6599     32.71     31.36    -26.87     24.00
   32.6701     32.10     31.35    -27.47     24.00
   32.6802     33.26     31.34    -26.31     24.00
   32.6904     32.78     31.34    -26.78     24.00
   32.7006     31.88     31.33    -27.67     24.00
   32.7107     32.65     31.32    -26.90     24.00
   32.7209     33.76     31.32    -25.78     24.00
   32.7311     32.81     31.31    -26.72     24.00
   32.7412     32.70     31.30    -26.82     24.00
   32.7514     33.27     31.30    -26.25     24.00
   32.7615     32.09     31.29    -27.42     24.00
   32.7717     33.10     31.28    -26.40     24.00
   32.7819     32.61     31.27    -26.89     24.00
   32.7920     32.24     31.27    -27.25     24.00
   32.8022     32.77     31.26    -26.71     24.00
   32.8124     32.49     31.25    -26.98     24.00
   32.8225     33.41     31.24    -26.06     24.00
   32.8327     32.41     31.24    -27.05     24.00
   32.8429     32.26     31.23    -27.19     24.00
   32.8530     33.23     31.22    -26.21     24.00
   32.8632     32.60     31.21    -26.84     24.00
   32.8734     32.95     31.21    -26.48     24.00
   32.8835     32.79     31.20    -26.63     24.00
   32.8937     32.31     31.19    -27.10     24.00
   32.9039     33.04     31.18    -26.36     24.00
   32.9140     32.62     31.17    -26.78     24.00
   32.9242     32.60     31.17    -26.79     24.00
   32.9343     33.14     31.16    -26.24     24.00
   32.9445     32.13     31.15    -27.24     24.00
   32.9547     32.29     31.14    -27.07     24.00
   32.9648     32.71     31.13    -26.64     24.00
   32.9750     31.64     31.12    -27.71     24.00
   32.9852     32.49     31.11    -26.85     24.00
   32.9953     32.73     31.11    -26.60     24.00
   33.0055     32.34     31.10    -26.98     24.00
   33.0157     32.37     31.09    -26.94     24.00
   33.0258     33.01     31.08    -26.29     24.00
   33.0360     31.94     31.07    -27.35     24.00
   33.0462     32.98     31.06    -26.30     24.00
   33.0563     33.09     31.05    -26.18     24.00
   33.0665     32.51     31.04    -26.75     24.00
   33.0766     31.92     31.03    -27.33     24.00
   33.0868     33.18     31.02    -26.06     24.00
   33.0970     32.73     31.01    -26.50     24.00
   33.1071     32.14     31.00    -27.08     24.00
   33.1173     33.17     30.98    -26.04     24.00
   33.1275     31.95     30.97    -27.25     24.00
   33.1376     32.83     30.96    -26.35     24.00
   33.1478     32.96     30.95    -26.21     24.00
   33.1580     32.48     30.94    -26.68     24.00
   33.1681     33.63     30.93    -25.52     24.00
   33.1783     33.09     30.92    -26.05     24.00
   33.1885     32.49     30.90    -26.64     24.00
   33.1986     32.98     30.89    -26.13     24.00
   33.2088     32.43     30.88    -26.67     24.00
   33.2189     33.23     30.87    -25.86     24.00
   33.2291     32.61     30.85    -26.47     24.00
   33.2393     33.23     30.84    -25.83     24.00
   33.2494     32.23     30.83    -26.82     24.00
   33.2596     33.16     30.81    -25.88     24.00
   33.2698     32.55     30.80    -26.47     24.00
   33.2799     32.69     30.79    -26.32     24.00
   33.2901     32.58     30.77    -26.42     24.00
   33.3003     33.15     30.76    -25.83     24.00
   33.3104     33.37     30.75    -25.60     24.00
   33.3206     32.55     30.73    -26.40     24.00
   33.3308     33.11     30.72    -25.83     24.00
   33.3409     32.65     30.70    -26.27     24.00
   33.3511     31.86     30.69    -27.05     24.00
   33.3613     34.15     30.67    -24.75     24.00
   33.3714     33.79     30.66    -25.09     24.00
   33.3816     33.08     30.64    -25.78     24.00
   33.3917     33.10     30.63    -25.75     24.00
   33.4019     32.91     30.61    -25.92     24.00
   33.4121     32.91     30.60    -25.91     24.00
   33.4222     32.85     30.58    -25.95     24.00
   33.4324     33.70     30.56    -25.09     24.00
   33.4426     33.04     30.55    -25.73     24.00
   33.4527     32.85     30.53    -25.90     24.00
   33.4629     32.87     30.52    -25.87     24.00
   33.4731     32.56     30.50    -26.16     24.00
   33.4832     32.52     30.48    -26.18     24.00
   33.4934     32.93     30.47    -25.76     24.00
   33.5036     32.51     30.45    -26.16     24.00
   33.5137     32.79     30.43    -25.86     24.00
   33.5239     32.92     30.41    -25.72     24.00
   33.5340     33.04     30.40    -25.58     24.00
   33.5442     32.37     30.38    -26.23     24.00
   33.5544     31.95     30.36    -26.63     24.00
   33.5645     31.69     30.34    -26.88     24.00
   33.5747     31.87     30.33    -26.68     24.00
   33.5849     31.10     30.31    -27.43     24.00
   33.5950     32.05     30.29    -26.46     24.00
   33.6052     32.26     30.27    -26.23     24.00
   33.6154     32.22     30.25    -26.25     24.00
   33.6255     31.37     30.23    -27.09     24.00
   33.6357     31.34     30.22    -27.10     24.00
   33.6459     31.28     30.20    -27.14     24.00
   33.6560     31.24     30.18    -27.16     24.00
   33.6662     31.75     30.16    -26.63     24.00
   33.6764     31.12     30.14    -27.24     24.00
   33.6865     31.65     30.12    -26.69     24.00
   33.6967     31.16     30.10    -27.16     24.00
   33.7068     30.87     30.08    -27.44     24.00
   33.7170     30.30     30.06    -27.99     24.00
   33.7272     30.16     30.04    -28.11     24.00
   33.7373     30.41     30.03    -27.84     24.00
   33.7475     31.26     30.01    -26.97     24.00
   33.7577     29.50     29.99    -28.71     24.00
   33.7678     30.57     29.97    -27.62     24.00
   33.7780     30.23     29.95    -27.94     24.00
   33.7882     30.16     29.93    -27.99     24.00
   33.7983     30.17     29.91    -27.96     24.00
   33.8085     30.05     29.89    -28.06     24.00
   33.8187     29.52     29.87    -28.57     24.00
   33.8288     30.21     29.85    -27.86     24.00
   33.8390     29.47     29.83    -28.58     24.00
   33.8491     29.55     29.81    -28.48     24.00
   33.8593     30.25     29.79    -27.76     24.00
   33.8695     29.48     29.77    -28.51     24.00
   33.8796     29.51     29.75    -28.46     24.00
   33.8898     29.37     29.73    -28.58     24.00
   33.9000     28.63     29.71    -29.30     24.00
   33.9101     29.57     29.69    -28.34     24.00
   33.9203     28.18     29.67    -29.71     24.00
   33.9305     28.80     29.65    -29.07     24.00
   33.9406     28.64     29.63    -29.21     24.00
   33.9508     29.26     29.61    -28.57     24.00
   33.9610     28.38     29.59    -29.43     24.00
   33.9711     28.61     29.57    -29.18     24.00
   33.9813     29.20     29.55    -28.57     24.00
   33.9915     28.71     29.53    -29.04     24.00
   34.0016     27.74     29.51    -29.99     24.00
   34.0118     28.46     29.48    -29.25     24.00
   34.0219     28.37     29.46    -29.32     24.00
   34.0321     28.23     29.44    -29.44     24.00
   34.0423     28.24     29.42    -29.41     24.00
   34.0524     28.09     29.40    -29.54     24.00
   34.0626     27.86     29.38    -29.75     24.00
   34.0728     27.40     29.36    -30.19     24.00
   34.0829     27.12     29.34    -30.45     24.00
   34.0931     27.77     29.32    -29.78     24.00
   34.1033     28.17     29.30    -29.36     24.00
   34.1134     27.55     29.28    -29.96     24.00
   34.1236     26.70     29.26    -30.78     24.00
   34.1338     27.10     29.24    -30.36     24.00
   34.1439     27.19     29.22    -30.25     24.00
   34.1541     27.84     29.20    -29.58     24.00
   34.1642     27.57     29.18    -29.84     24.00
   34.1744     27.06     29.16    -30.33     24.00
   34.1846     27.05     29.14    -30.32     24.00
   34.1947     27.66     29.12    -29.69     24.00
   34.2049     26.95     29.10    -30.38     24.00
   34.2151     27.38     29.08    -29.93     24.00
   34.2252     26.55     29.06    -30.74     24.00
   34.2354     27.49     29.04    -29.78     24.00
   34.2456     27.26     29.02    -29.99     24.00
   34.2557     27.04     29.01    -30.19     24.00
   34.2659     26.97     28.99    -30.24     24.00
   34.2761     27.20     28.97    -29.99     24.00
   34.2862     26.59     28.95    -30.58     24.00
   34.2964     26.38     28.93    -30.77     24.00
   34.3066     27.02     28.91    -30.11     24.00
   34.3167     26.65     28.89    -30.46     24.00
   34.3269     25.66     28.87    -31.43     24.00
   34.3370     26.58     28.85    -30.49     24.00
   34.3472     26.96     28.83    -30.09     24.00
   34.3574     27.18     28.81    -29.85     24.00
   34.3675     26.54     28.79    -30.48     24.00
   34.3777     27.01     28.77    -29.99     24.00
   34.3879     26.75     28.76    -30.23     24.00
   34.3980     26.12     28.74    -30.84     24.00
   34.4082     26.45     28.72    -30.49     24.00
   34.4184     27.18     28.70    -29.74     24.00
   34.4285     26.65     28.68    -30.25     24.00
   34.4387     25.93     28.66    -30.96     24.00
   34.4489     26.20     28.64    -30.67     24.00
   34.4590     26.23     28.63    -30.62     24.00
   34.4692     27.21     28.61    -29.62     24.00
   34.4793     25.84     28.59    -30.97     24.00
   34.4895     26.18     28.57    -30.61     24.00
   34.4997     25.85     28.55    -30.93     24.00
   34.5098     25.91     28.54    -30.85     24.00
   34.5200     25.23     28.52    -31.51     24.00
   34.5302     26.48     28.50    -30.24     24.00
   34.5403     26.49     28.48    -30.22     24.00
   34.5505     25.90     28.47    -30.79     24.00
   34.5607     26.12     28.45    -30.55     24.00
   34.5708     26.10     28.43    -30.55     24.00
   34.5810     25.35     28.41    -31.29     24.00
   34.5912     25.50     28.40    -31.12     24.00
   34.6013     25.74     28.38    -30.86     24.00
   34.6115     26.41     28.36    -30.17     24.00
   34.6217     25.72     28.35    -30.85     24.00
   34.6318     25.57     28.33    -30.98     24.00
   34.6420     26.01     28.31    -30.52     24.00
   34.6521     25.68     28.29    -30.84     24.00
   34.6623     25.52     28.28    -30.98     24.00
   34.6725     25.86     28.26    -30.62     24.00
   34.6826     25.74     28.25    -30.73     24.00
   34.6928     25.20     28.23    -31.25     24.00
   34.7030     25.09     28.21    -31.34     24.00
   34.7131     25.49     28.20    -30.93     24.00
   34.7233     25.36     28.18    -31.04     24.00
   34.7335     25.96     28.16    -30.43     24.00
   34.7436     25.66     28.15    -30.71     24.00
   34.7538     25.23     28.13    -31.12     24.00
   34.7640     25.16     28.12    -31.18     24.00
   34.7741     25.44     28.10    -30.88     24.00
   34.7843     24.73     28.09    -31.58     24.00
   34.7944     25.71     28.07    -30.58     24.00
   34.8046     25.77     28.06    -30.51     24.00
   34.8148     24.84     28.04    -31.42     24.00
   34.8249     25.89     28.03    -30.36     24.00
   34.8351     24.91     28.01    -31.32     24.00
   34.8453     24.59     28.00    -31.63     24.00
   34.8554     25.16     27.98    -31.04     24.00
   34.8656     25.77     27.97    -30.42     24.00
   34.8758     24.99     27.95    -31.18     24.00
   34.8859     25.54     27.94    -30.62     24.00
   34.8961     25.16     27.92    -30.98     24.00
   34.9063     24.39     27.91    -31.74     24.00
   34.9164     24.71     27.89    -31.41     24.00
   34.9266     25.61     27.88    -30.49     24.00
   34.9367     24.63     27.87    -31.46     24.00
   34.9469     24.99     27.85    -31.08     24.00
   34.9571     25.07     27.84    -30.99     24.00
   34.9672     25.52     27.82    -30.53     24.00
   34.9774     25.22     27.81    -30.81     24.00
   34.9876     24.96     27.80    -31.06     24.00
   34.9977     25.08     27.78    -30.93     24.00
   35.0079     24.63     27.77    -31.36     24.00
   35.0181     25.36     27.76    -30.62     24.00
   35.0282     25.21     27.74    -30.76     24.00
   35.0384     25.12     27.73    -30.83     24.00
   35.0486     25.11     27.72    -30.83     24.00
   35.0587     24.43     27.70    -31.50     24.00
   35.0689     24.43     27.69    -31.48     24.00
   35.0791     24.47     27.68    -31.43     24.00
   35.0892     24.84     27.67    -31.05     24.00
   35.0994     24.56     27.65    -31.32     24.00
   35.1095     25.23     27.64    -30.63     24.00
   35.1197     24.63     27.63    -31.22     24.00
   35.1299     25.52     27.62    -30.32     24.00
   35.1400     25.32     27.60    -30.51     24.00
   35.1502     24.62     27.59    -31.19     24.00
   35.1604     24.65     27.58    -31.15     24.00
   35.1705     25.10     27.57    -30.69     24.00
   35.1807     25.35     27.56    -30.43     24.00
   35.1909     25.17     27.55    -30.60     24.00
   35.2010     23.99     27.53    -31.77     24.00
   35.2112     25.26     27.52    -30.48     24.00
   35.2214     24.87     27.51    -30.86     24.00
   35.2315     24.45     27.50    -31.27     24.00
   35.2417     24.68     27.49    -31.03     24.00
   35.2518     24.04     27.48    -31.66     24.00
   35.2620     25.00     27.47    -30.69     24.00
   35.2722     24.28     27.46    -31.40     24.00
   35.2823     25.43     27.44    -30.24     24.00
   35.2925     24.50     27.43    -31.16     24.00
   35.3027     24.20     27.42    -31.44     24.00
   35.3128     24.54     27.41    -31.09     24.00
   35.3230     24.38     27.40    -31.24     24.00
   35.3332     25.09     27.39    -30.52     24.00
   35.3433     25.13     27.38    -30.47     24.00
   35.3535     24.38     27.37    -31.21     24.00
   35.3637     23.40     27.36    -32.18     24.00
   35.3738     24.49     27.35    -31.08     24.00
   35.3840     24.44     27.34    -31.12     24.00
   35.3942     24.72     27.33    -30.83     24.00
   35.4043     25.32     27.32    -30.22     24.00
   35.4145     25.01     27.31    -30.52     24.00
   35.4246     24.99     27.30    -30.53     24.00
   35.4348     23.66     27.29    -31.85     24.00
   35.4450     24.66     27.28    -30.84     24.00
   35.4551     23.68     27.27    -31.81     24.00
   35.4653     24.45     27.26    -31.03     24.00
   35.4755     24.99     27.25    -30.49     24.00
   35.4856     24.77     27.24    -30.70     24.00
   35.4958     24.73     27.23    -30.73     24.00
   35.5060     24.63     27.23    -30.82     24.00
   35.5161     23.93     27.22    -31.51     24.00
   35.5263     24.35     27.21    -31.08     24.00
   35.5365     25.20     27.20    -30.22     24.00
   35.5466     24.34     27.19    -31.07     24.00
   35.5568     24.79     27.18    -30.61     24.00
   35.5669     23.66     27.17    -31.73     24.00
   35.5771     24.48     27.16    -30.91     24.00
   35.5873     24.33     27.16    -31.05     24.00
   35.5974     24.29     27.15    -31.08     24.00
   35.6076     24.16     27.14    -31.20     24.00
   35.6178     23.94     27.13    -31.41     24.00
   35.6279     24.88     27.12    -30.46     24.00
   35.6381     24.38     27.11    -30.96     24.00
   35.6483     24.59     27.11    -30.74     24.00
   35.6584     24.41     27.10    -30.91     24.00
   35.6686     24.16     27.09    -31.15     24.00
   35.6788     24.68     27.08    -30.62     24.00
   35.6889     24.18     27.07    -31.12     24.00
   35.6991     25.26     27.07    -30.03     24.00
   35.7093     24.64     27.06    -30.64     24.00
   35.7194     24.77     27.05    -30.50     24.00
   35.7296     24.41     27.04    -30.86     24.00
   35.7397     24.12     27.04    -31.14     24.00
   35.7499     23.92     27.03    -31.33     24.00
   35.7601     24.04     27.02    -31.20     24.00
   35.7702     24.57     27.01    -30.67     24.00
   35.7804     24.34     27.01    -30.89     24.00
   35.7906     24.39     27.00    -30.83     24.00
   35.8007     24.28     26.99    -30.93     24.00
   35.8109     24.07     26.98    -31.14     24.00
   35.8211     24.45     26.98    -30.75     24.00
   35.8312     24.74     26.97    -30.45     24.00
   35.8414     24.13     26.96    -31.06     24.00
   35.8516     24.40     26.96    -30.78     24.00
   35.8617     23.64     26.95    -31.53     24.00
   35.8719     24.77     26.94    -30.40     24.00
   35.8820     23.88     26.94    -31.28     24.00
   35.8922     24.36     26.93    -30.79     24.00
   35.9024     24.33     26.92    -30.82     24.00
   35.9125     23.48     26.92    -31.66     24.00
   35.9227     24.60     26.91    -30.53     24.00
   35.9329     24.43     26.90    -30.70     24.00
   35.9430     24.34     26.90    -30.78     24.00
   35.9532     24.59     26.89    -30.52     24.00
   35.9634     23.67     26.88    -31.44     24.00
   35.9735     24.27     26.88    -30.83     24.00
   35.9837     23.73     26.87    -31.36     24.00
   35.9939     24.42     26.87    -30.67     24.00
