 => TITLE: 
 => Data file name: C:\Users\stefano\Nextcloud2\projects\programming\python\xrd-winplotr\folder\G301\G301--5-40-0.01-1000ms.xy
 => Instrm        :    1
 => Lambda(1&2)   :   1.54060  1.54060
 => Numb.of.points:      2944
 => Numb.of.peaks :         8
    2Theta     Yobs     Ycalc  Yobs-Ycal    Backg    Bragg     Posr  Intensity   FWHM    Eta
    6.1814     23.95     26.08    -26.07     25.11   18.7236     -0.32     119.76  0.8574  0.0001
    6.1915     24.32     26.08    -25.71     25.11   20.5112     -0.32      81.80  1.6953  0.0001
    6.2017     23.31     26.09    -26.72     25.11   22.5308     -0.32     109.60  1.4128  0.0001
    6.2119     24.45     26.10    -25.59     25.11   28.4795     -0.32      30.64  1.2621  0.0001
    6.2220     24.13     26.10    -25.92     25.11   29.9415     -0.32      22.08  1.9893  0.0001
    6.2322     24.76     26.11    -25.29     25.11   33.3250     -0.32      10.80  1.9893  0.0001
    6.2424     24.13     26.12    -25.93     25.11   18.0000     -0.32     140.79  3.4779  0.0001
    6.2525     24.17     26.12    -25.89     25.11   20.1410     -0.32     710.37 11.4850  0.0001
    6.2627     24.59     26.13    -25.48     25.11
    6.2729     24.95     26.13    -25.13     25.11
    6.2830     23.73     26.14    -26.35     25.11
    6.2932     24.58     26.15    -25.51     25.11
    6.3034     24.41     26.15    -25.69     25.11
    6.3135     23.91     26.16    -26.19     25.11
    6.3237     24.59     26.17    -25.52     25.11
    6.3338     23.89     26.17    -26.22     25.11
    6.3440     24.46     26.18    -25.66     25.12
    6.3542     24.67     26.19    -25.46     25.12
    6.3643     25.05     26.19    -25.08     25.12
    6.3745     24.35     26.20    -25.79     25.12
    6.3847     24.37     26.20    -25.78     25.12
    6.3948     24.19     26.21    -25.96     25.12
    6.4050     24.82     26.22    -25.34     25.12
    6.4152     23.49     26.23    -26.68     25.12
    6.4253     24.10     26.23    -26.07     25.12
    6.4355     24.62     26.24    -25.56     25.12
    6.4457     23.58     26.25    -26.61     25.12
    6.4558     24.51     26.25    -25.68     25.12
    6.4660     24.34     26.26    -25.86     25.12
    6.4762     23.68     26.27    -26.53     25.12
    6.4863     24.79     26.27    -25.42     25.12
    6.4965     24.62     26.28    -25.60     25.12
    6.5066     23.77     26.29    -26.46     25.12
    6.5168     24.55     26.29    -25.69     25.12
    6.5270     24.23     26.30    -26.01     25.12
    6.5371     24.90     26.31    -25.35     25.12
    6.5473     24.53     26.32    -25.73     25.12
    6.5575     24.90     26.32    -25.36     25.12
    6.5676     25.17     26.33    -25.10     25.12
    6.5778     23.90     26.34    -26.38     25.12
    6.5880     24.38     26.34    -25.91     25.12
    6.5981     24.99     26.35    -25.30     25.12
    6.6083     24.38     26.36    -25.92     25.12
    6.6185     24.60     26.37    -25.71     25.12
    6.6286     24.76     26.37    -25.56     25.12
    6.6388     24.56     26.38    -25.76     25.12
    6.6489     24.56     26.39    -25.77     25.12
    6.6591     24.99     26.40    -25.35     25.12
    6.6693     25.05     26.40    -25.30     25.12
    6.6794     25.65     26.41    -24.70     25.12
    6.6896     24.54     26.42    -25.82     25.12
    6.6998     25.26     26.43    -25.11     25.12
    6.7099     24.76     26.43    -25.62     25.12
    6.7201     26.05     26.44    -24.33     25.12
    6.7303     24.31     26.45    -26.08     25.12
    6.7404     25.68     26.46    -24.72     25.12
    6.7506     25.03     26.47    -25.38     25.12
    6.7608     24.38     26.47    -26.04     25.12
    6.7709     25.04     26.48    -25.38     25.12
    6.7811     24.48     26.49    -25.95     25.12
    6.7913     25.88     26.50    -24.56     25.13
    6.8014     25.00     26.51    -25.45     25.13
    6.8116     24.56     26.51    -25.90     25.13
    6.8217     25.10     26.52    -25.36     25.13
    6.8319     25.36     26.53    -25.11     25.13
    6.8421     24.96     26.54    -25.52     25.13
    6.8522     24.12     26.55    -26.37     25.13
    6.8624     25.07     26.55    -25.43     25.13
    6.8726     24.01     26.56    -26.50     25.13
    6.8827     24.79     26.57    -25.72     25.13
    6.8929     25.07     26.58    -25.45     25.13
    6.9031     24.84     26.59    -25.69     25.13
    6.9132     24.55     26.60    -25.99     25.13
    6.9234     24.54     26.61    -26.01     25.13
    6.9336     25.90     26.61    -24.66     25.13
    6.9437     25.38     26.62    -25.18     25.13
    6.9539     25.62     26.63    -24.95     25.13
    6.9640     25.27     26.64    -25.31     25.13
    6.9742     25.81     26.65    -24.78     25.13
    6.9844     26.14     26.66    -24.46     25.13
    6.9945     25.99     26.67    -24.62     25.13
    7.0047     25.87     26.68    -24.75     25.13
    7.0149     25.08     26.68    -25.55     25.13
    7.0250     24.80     26.69    -25.84     25.13
    7.0352     24.30     26.70    -26.34     25.13
    7.0454     25.63     26.71    -25.02     25.13
    7.0555     24.66     26.72    -26.00     25.13
    7.0657     24.63     26.73    -26.04     25.13
    7.0759     25.28     26.74    -25.40     25.13
    7.0860     25.21     26.75    -25.48     25.13
    7.0962     25.49     26.76    -25.21     25.13
    7.1064     25.19     26.77    -25.52     25.13
    7.1165     24.96     26.78    -25.76     25.13
    7.1267     25.99     26.79    -24.74     25.13
    7.1368     25.40     26.79    -25.34     25.13
    7.1470     25.87     26.80    -24.88     25.13
    7.1572     25.76     26.81    -25.00     25.13
    7.1673     25.87     26.82    -24.90     25.13
    7.1775     26.57     26.83    -24.20     25.13
    7.1877     25.68     26.84    -25.10     25.13
    7.1978     26.05     26.85    -24.74     25.13
    7.2080     26.27     26.86    -24.53     25.13
    7.2182     26.30     26.87    -24.51     25.13
    7.2283     26.35     26.88    -24.47     25.13
    7.2385     25.73     26.89    -25.10     25.13
    7.2487     25.31     26.90    -25.53     25.14
    7.2588     25.88     26.91    -24.97     25.14
    7.2690     25.22     26.92    -25.64     25.14
    7.2791     26.38     26.93    -24.49     25.14
    7.2893     25.68     26.94    -25.20     25.14
    7.2995     25.49     26.95    -25.40     25.14
    7.3096     26.81     26.96    -24.09     25.14
    7.3198     26.32     26.97    -24.59     25.14
    7.3300     26.46     26.98    -24.46     25.14
    7.3401     26.07     26.99    -24.86     25.14
    7.3503     25.99     27.00    -24.96     25.14
    7.3605     25.52     27.01    -25.44     25.14
    7.3706     26.24     27.02    -24.73     25.14
    7.3808     26.62     27.03    -24.36     25.14
    7.3910     25.48     27.05    -25.51     25.14
    7.4011     26.57     27.06    -24.43     25.14
    7.4113     26.08     27.07    -24.93     25.14
    7.4215     27.01     27.08    -24.01     25.14
    7.4316     26.32     27.09    -24.71     25.14
    7.4418     26.95     27.10    -24.09     25.14
    7.4519     25.52     27.11    -25.53     25.14
    7.4621     26.59     27.12    -24.47     25.14
    7.4723     26.44     27.13    -24.63     25.14
    7.4824     26.13     27.14    -24.95     25.14
    7.4926     26.70     27.15    -24.40     25.14
    7.5028     25.61     27.16    -25.50     25.14
    7.5129     26.74     27.18    -24.38     25.14
    7.5231     26.80     27.19    -24.33     25.14
    7.5333     26.84     27.20    -24.30     25.14
    7.5434     26.72     27.21    -24.43     25.14
    7.5536     26.21     27.22    -24.95     25.14
    7.5638     27.26     27.23    -23.91     25.14
    7.5739     26.59     27.24    -24.60     25.14
    7.5841     26.71     27.26    -24.49     25.14
    7.5942     27.02     27.27    -24.19     25.14
    7.6044     27.30     27.28    -23.92     25.14
    7.6146     26.73     27.29    -24.50     25.14
    7.6247     27.52     27.30    -23.72     25.14
    7.6349     26.71     27.31    -24.55     25.14
    7.6451     27.57     27.33    -23.70     25.14
    7.6552     26.68     27.34    -24.60     25.14
    7.6654     27.32     27.35    -23.97     25.14
    7.6756     27.23     27.36    -24.07     25.14
    7.6857     27.79     27.37    -23.53     25.14
    7.6959     26.94     27.39    -24.39     25.14
    7.7061     26.46     27.40    -24.88     25.15
    7.7162     27.62     27.41    -23.73     25.15
    7.7264     26.89     27.42    -24.47     25.15
    7.7365     26.73     27.44    -24.65     25.15
    7.7467     26.63     27.45    -24.76     25.15
    7.7569     27.18     27.46    -24.22     25.15
    7.7670     26.74     27.47    -24.67     25.15
    7.7772     27.25     27.48    -24.18     25.15
    7.7874     27.18     27.50    -24.26     25.15
    7.7975     26.88     27.51    -24.57     25.15
    7.8077     27.02     27.52    -24.44     25.15
    7.8179     27.43     27.54    -24.05     25.15
    7.8280     26.56     27.55    -24.93     25.15
    7.8382     27.84     27.56    -23.66     25.15
    7.8484     27.27     27.57    -24.25     25.15
    7.8585     27.86     27.59    -23.67     25.15
    7.8687     28.18     27.60    -23.36     25.15
    7.8789     27.05     27.61    -24.51     25.15
    7.8890     27.41     27.63    -24.16     25.15
    7.8992     27.48     27.64    -24.10     25.15
    7.9093     27.79     27.65    -23.81     25.15
    7.9195     27.84     27.67    -23.77     25.15
    7.9297     27.57     27.68    -24.05     25.15
    7.9398     27.65     27.69    -23.99     25.15
    7.9500     27.54     27.71    -24.11     25.15
    7.9602     28.12     27.72    -23.54     25.15
    7.9703     27.04     27.73    -24.64     25.15
    7.9805     28.25     27.75    -23.44     25.15
    7.9907     28.09     27.76    -23.61     25.15
    8.0008     26.97     27.78    -24.75     25.15
    8.0110     27.93     27.79    -23.80     25.15
    8.0212     28.46     27.80    -23.29     25.15
    8.0313     27.18     27.82    -24.58     25.15
    8.0415     28.29     27.83    -23.48     25.15
    8.0516     26.85     27.85    -24.94     25.15
    8.0618     27.24     27.86    -24.56     25.15
    8.0720     28.02     27.87    -23.80     25.15
    8.0821     28.09     27.89    -23.74     25.15
    8.0923     28.26     27.90    -23.58     25.15
    8.1025     29.23     27.92    -22.63     25.15
    8.1126     28.04     27.93    -23.83     25.15
    8.1228     28.05     27.95    -23.84     25.15
    8.1330     28.75     27.96    -23.15     25.15
    8.1431     28.23     27.97    -23.69     25.15
    8.1533     28.56     27.99    -23.37     25.15
    8.1635     29.03     28.00    -22.92     25.16
    8.1736     28.16     28.02    -23.80     25.16
    8.1838     28.46     28.03    -23.52     25.16
    8.1940     28.58     28.05    -23.41     25.16
    8.2041     28.57     28.06    -23.44     25.16
    8.2143     29.04     28.08    -22.98     25.16
    8.2244     28.61     28.09    -23.43     25.16
    8.2346     28.43     28.11    -23.62     25.16
    8.2448     27.56     28.12    -24.51     25.16
    8.2549     28.95     28.14    -23.13     25.16
    8.2651     29.24     28.16    -22.86     25.16
    8.2753     28.66     28.17    -23.45     25.16
    8.2854     28.47     28.19    -23.66     25.16
    8.2956     28.55     28.20    -23.59     25.16
    8.3058     28.83     28.22    -23.33     25.16
    8.3159     29.02     28.23    -23.16     25.16
    8.3261     29.69     28.25    -22.50     25.16
    8.3363     28.24     28.27    -23.97     25.16
    8.3464     28.90     28.28    -23.32     25.16
    8.3566     29.24     28.30    -23.00     25.16
    8.3667     28.96     28.31    -23.29     25.16
    8.3769     28.99     28.33    -23.28     25.16
    8.3871     28.91     28.35    -23.38     25.16
    8.3972     29.20     28.36    -23.10     25.16
    8.4074     28.82     28.38    -23.50     25.16
    8.4176     28.87     28.39    -23.47     25.16
    8.4277     29.38     28.41    -22.97     25.16
    8.4379     29.03     28.43    -23.34     25.16
    8.4481     28.87     28.44    -23.52     25.16
    8.4582     28.99     28.46    -23.41     25.16
    8.4684     29.10     28.48    -23.32     25.16
    8.4786     29.70     28.49    -22.74     25.16
    8.4887     28.75     28.51    -23.70     25.16
    8.4989     29.85     28.53    -22.62     25.16
    8.5091     29.44     28.54    -23.05     25.16
    8.5192     28.76     28.56    -23.74     25.16
    8.5294     28.63     28.58    -23.89     25.16
    8.5395     28.85     28.60    -23.69     25.16
    8.5497     29.55     28.61    -23.01     25.16
    8.5599     30.15     28.63    -22.42     25.16
    8.5700     29.04     28.65    -23.55     25.16
    8.5802     28.80     28.67    -23.81     25.16
    8.5904     29.13     28.68    -23.50     25.16
    8.6005     29.40     28.70    -23.24     25.16
    8.6107     29.59     28.72    -23.07     25.17
    8.6209     29.04     28.74    -23.64     25.17
    8.6310     29.55     28.75    -23.15     25.17
    8.6412     29.34     28.77    -23.37     25.17
    8.6514     28.83     28.79    -23.90     25.17
    8.6615     29.73     28.81    -23.02     25.17
    8.6717     29.35     28.83    -23.42     25.17
    8.6818     29.28     28.84    -23.51     25.17
    8.6920     29.96     28.86    -22.84     25.17
    8.7022     28.93     28.88    -23.89     25.17
    8.7123     28.99     28.90    -23.85     25.17
    8.7225     29.25     28.92    -23.61     25.17
    8.7327     28.99     28.94    -23.89     25.17
    8.7428     29.75     28.95    -23.15     25.17
    8.7530     29.58     28.97    -23.34     25.17
    8.7632     29.88     28.99    -23.05     25.17
    8.7733     29.42     29.01    -23.53     25.17
    8.7835     30.36     29.03    -22.61     25.17
    8.7937     29.66     29.05    -23.33     25.17
    8.8038     29.98     29.07    -23.03     25.17
    8.8140     30.15     29.09    -22.88     25.17
    8.8242     29.65     29.11    -23.40     25.17
    8.8343     30.73     29.13    -22.34     25.17
    8.8445     30.15     29.15    -22.94     25.17
    8.8546     29.11     29.16    -24.00     25.17
    8.8648     30.07     29.18    -23.06     25.17
    8.8750     30.58     29.20    -22.57     25.17
    8.8851     29.87     29.22    -23.30     25.17
    8.8953     29.57     29.24    -23.62     25.17
    8.9055     30.09     29.26    -23.12     25.17
    8.9156     29.98     29.28    -23.25     25.17
    8.9258     29.60     29.30    -23.65     25.17
    8.9360     29.88     29.32    -23.39     25.17
    8.9461     29.34     29.34    -23.95     25.17
    8.9563     29.59     29.36    -23.72     25.17
    8.9665     29.40     29.38    -23.93     25.17
    8.9766     29.65     29.40    -23.70     25.17
    8.9868     30.82     29.42    -22.55     25.17
    8.9969     29.58     29.44    -23.81     25.17
    9.0071     30.18     29.47    -23.23     25.17
    9.0173     30.53     29.49    -22.90     25.17
    9.0274     31.02     29.51    -22.43     25.17
    9.0376     29.45     29.53    -24.02     25.17
    9.0478     30.71     29.55    -22.78     25.17
    9.0579     30.24     29.57    -23.27     25.17
    9.0681     30.63     29.59    -22.90     25.18
    9.0783     30.49     29.61    -23.06     25.18
    9.0884     30.62     29.63    -22.96     25.18
    9.0986     30.53     29.65    -23.07     25.18
    9.1088     30.52     29.68    -23.10     25.18
    9.1189     30.38     29.70    -23.26     25.18
    9.1291     30.30     29.72    -23.36     25.18
    9.1393     32.03     29.74    -21.65     25.18
    9.1494     30.56     29.76    -23.14     25.18
    9.1596     29.54     29.78    -24.19     25.18
    9.1697     30.53     29.81    -23.22     25.18
    9.1799     31.04     29.83    -22.73     25.18
    9.1901     31.29     29.85    -22.50     25.18
    9.2002     31.14     29.87    -22.67     25.18
    9.2104     30.63     29.89    -23.21     25.18
    9.2206     31.20     29.92    -22.66     25.18
    9.2307     31.43     29.94    -22.45     25.18
    9.2409     30.03     29.96    -23.87     25.18
    9.2511     30.59     29.98    -23.34     25.18
    9.2612     31.85     30.01    -22.10     25.18
    9.2714     30.99     30.03    -22.98     25.18
    9.2816     30.70     30.05    -23.29     25.18
    9.2917     30.57     30.08    -23.45     25.18
    9.3019     31.48     30.10    -22.56     25.18
    9.3120     31.35     30.12    -22.71     25.18
    9.3222     30.98     30.14    -23.11     25.18
    9.3324     31.46     30.17    -22.65     25.18
    9.3425     30.62     30.19    -23.51     25.18
    9.3527     30.72     30.21    -23.44     25.18
    9.3629     31.43     30.24    -22.75     25.18
    9.3730     30.84     30.26    -23.36     25.18
    9.3832     31.03     30.28    -23.20     25.18
    9.3934     30.51     30.31    -23.74     25.18
    9.4035     31.32     30.33    -22.95     25.18
    9.4137     31.45     30.36    -22.85     25.18
    9.4239     31.54     30.38    -22.78     25.18
    9.4340     31.49     30.40    -22.86     25.18
    9.4442     31.63     30.43    -22.74     25.18
    9.4544     32.62     30.45    -21.77     25.18
    9.4645     31.89     30.48    -22.53     25.18
    9.4747     31.86     30.50    -22.58     25.18
    9.4848     31.77     30.53    -22.70     25.18
    9.4950     31.25     30.55    -23.24     25.18
    9.5052     31.98     30.58    -22.54     25.18
    9.5153     32.34     30.60    -22.20     25.18
    9.5255     31.62     30.62    -22.95     25.19
    9.5357     31.81     30.65    -22.78     25.19
    9.5458     31.24     30.67    -23.38     25.19
    9.5560     31.43     30.70    -23.21     25.19
    9.5662     31.57     30.73    -23.10     25.19
    9.5763     31.93     30.75    -22.76     25.19
    9.5865     31.34     30.78    -23.38     25.19
    9.5967     32.20     30.80    -22.54     25.19
    9.6068     31.65     30.83    -23.12     25.19
    9.6170     31.89     30.85    -22.90     25.19
    9.6271     31.62     30.88    -23.20     25.19
    9.6373     32.34     30.90    -22.51     25.19
    9.6475     31.77     30.93    -23.10     25.19
    9.6576     31.57     30.96    -23.33     25.19
    9.6678     31.54     30.98    -23.38     25.19
    9.6780     31.42     31.01    -23.53     25.19
    9.6881     32.06     31.03    -22.92     25.19
    9.6983     31.49     31.06    -23.51     25.19
    9.7085     31.50     31.09    -23.53     25.19
    9.7186     31.84     31.11    -23.22     25.19
    9.7288     32.15     31.14    -22.93     25.19
    9.7390     31.83     31.17    -23.28     25.19
    9.7491     32.17     31.19    -22.97     25.19
    9.7593     31.78     31.22    -23.38     25.19
    9.7694     32.45     31.25    -22.74     25.19
    9.7796     32.48     31.28    -22.74     25.19
    9.7898     31.85     31.30    -23.39     25.19
    9.7999     32.82     31.33    -22.45     25.19
    9.8101     31.83     31.36    -23.47     25.19
    9.8203     32.14     31.38    -23.19     25.19
    9.8304     32.37     31.41    -22.98     25.19
    9.8406     32.15     31.44    -23.23     25.19
    9.8508     32.29     31.47    -23.12     25.19
    9.8609     32.98     31.50    -22.46     25.19
    9.8711     32.42     31.52    -23.05     25.19
    9.8813     32.65     31.55    -22.84     25.19
    9.8914     32.80     31.58    -22.72     25.19
    9.9016     32.74     31.61    -22.81     25.19
    9.9118     32.82     31.64    -22.76     25.19
    9.9219     32.73     31.66    -22.88     25.19
    9.9321     32.46     31.69    -23.18     25.19
    9.9422     33.09     31.72    -22.57     25.19
    9.9524     32.18     31.75    -23.51     25.19
    9.9626     33.39     31.78    -22.33     25.19
    9.9727     33.51     31.81    -22.24     25.19
    9.9829     32.34     31.84    -23.44     25.20
    9.9931     32.65     31.87    -23.16     25.20
   10.0032     32.78     31.90    -23.06     25.20
   10.0134     32.34     31.92    -23.53     25.20
   10.0236     32.59     31.95    -23.31     25.20
   10.0337     32.40     31.98    -23.53     25.20
   10.0439     33.00     32.01    -22.96     25.20
   10.0541     33.18     32.04    -22.80     25.20
   10.0642     31.65     32.07    -24.36     25.20
   10.0744     32.16     32.10    -23.88     25.20
   10.0845     33.13     32.13    -22.94     25.20
   10.0947     32.16     32.16    -23.94     25.20
   10.1049     32.39     32.19    -23.74     25.20
   10.1150     32.99     32.22    -23.17     25.20
   10.1252     32.48     32.25    -23.72     25.20
   10.1354     32.63     32.28    -23.60     25.20
   10.1455     33.06     32.31    -23.20     25.20
   10.1557     34.41     32.34    -21.88     25.20
   10.1659     33.55     32.38    -22.77     25.20
   10.1760     32.66     32.41    -23.69     25.20
   10.1862     32.82     32.44    -23.56     25.20
   10.1964     33.96     32.47    -22.45     25.20
   10.2065     32.80     32.50    -23.64     25.20
   10.2167     32.89     32.53    -23.58     25.20
   10.2269     33.49     32.56    -23.01     25.20
   10.2370     33.84     32.59    -22.70     25.20
   10.2472     32.72     32.63    -23.85     25.20
   10.2573     33.12     32.66    -23.48     25.20
   10.2675     33.51     32.69    -23.12     25.20
   10.2777     33.16     32.72    -23.50     25.20
   10.2878     33.24     32.75    -23.45     25.20
   10.2980     34.01     32.78    -22.72     25.20
   10.3082     33.80     32.82    -22.96     25.20
   10.3183     34.15     32.85    -22.64     25.20
   10.3285     33.41     32.88    -23.41     25.20
   10.3387     33.25     32.91    -23.61     25.20
   10.3488     34.09     32.95    -22.80     25.20
   10.3590     34.26     32.98    -22.66     25.20
   10.3692     33.54     33.01    -23.41     25.20
   10.3793     34.05     33.04    -22.94     25.20
   10.3895     33.60     33.08    -23.42     25.20
   10.3996     33.49     33.11    -23.56     25.20
   10.4098     34.92     33.14    -22.17     25.20
   10.4200     34.47     33.18    -22.65     25.20
   10.4301     33.35     33.21    -23.80     25.21
   10.4403     35.55     33.24    -21.64     25.21
   10.4505     34.63     33.28    -22.59     25.21
   10.4606     33.85     33.31    -23.40     25.21
   10.4708     33.86     33.35    -23.43     25.21
   10.4810     34.68     33.38    -22.64     25.21
   10.4911     33.93     33.41    -23.43     25.21
   10.5013     33.20     33.45    -24.19     25.21
   10.5115     34.43     33.48    -22.99     25.21
   10.5216     34.47     33.52    -22.99     25.21
   10.5318     34.49     33.55    -23.00     25.21
   10.5420     34.50     33.59    -23.03     25.21
   10.5521     33.51     33.62    -24.05     25.21
   10.5623     34.01     33.65    -23.59     25.21
   10.5724     34.38     33.69    -23.25     25.21
   10.5826     34.24     33.72    -23.43     25.21
   10.5928     33.45     33.76    -24.25     25.21
   10.6029     34.60     33.79    -23.14     25.21
   10.6131     34.00     33.83    -23.77     25.21
   10.6233     34.79     33.87    -23.02     25.21
   10.6334     33.69     33.90    -24.15     25.21
   10.6436     34.43     33.94    -23.45     25.21
   10.6538     34.91     33.97    -23.00     25.21
   10.6639     34.22     34.01    -23.73     25.21
   10.6741     35.19     34.04    -22.80     25.21
   10.6843     33.27     34.08    -24.75     25.21
   10.6944     34.68     34.12    -23.38     25.21
   10.7046     34.73     34.15    -23.36     25.21
   10.7147     35.04     34.19    -23.09     25.21
   10.7249     34.50     34.22    -23.67     25.21
   10.7351     34.48     34.26    -23.72     25.21
   10.7452     34.39     34.30    -23.85     25.21
   10.7554     35.07     34.33    -23.21     25.21
   10.7656     34.26     34.37    -24.05     25.21
   10.7757     35.18     34.41    -23.17     25.21
   10.7859     34.72     34.45    -23.67     25.21
   10.7961     35.54     34.48    -22.88     25.21
   10.8062     34.50     34.52    -23.96     25.21
   10.8164     35.05     34.56    -23.45     25.21
   10.8266     34.88     34.60    -23.66     25.21
   10.8367     34.22     34.63    -24.35     25.21
   10.8469     34.94     34.67    -23.67     25.21
   10.8571     34.85     34.71    -23.80     25.21
   10.8672     35.02     34.75    -23.67     25.21
   10.8774     35.61     34.78    -23.12     25.21
   10.8875     35.27     34.82    -23.49     25.22
   10.8977     34.66     34.86    -24.14     25.22
   10.9079     34.77     34.90    -24.07     25.22
   10.9180     34.07     34.94    -24.81     25.22
   10.9282     35.52     34.98    -23.40     25.22
   10.9384     35.15     35.01    -23.81     25.22
   10.9485     35.55     35.05    -23.45     25.22
   10.9587     35.31     35.09    -23.72     25.22
   10.9689     35.45     35.13    -23.62     25.22
   10.9790     35.15     35.17    -23.96     25.22
   10.9892     35.18     35.21    -23.97     25.22
   10.9994     35.21     35.25    -23.98     25.22
   11.0095     36.10     35.29    -23.13     25.22
   11.0197     35.40     35.33    -23.87     25.22
   11.0298     36.74     35.37    -22.57     25.22
   11.0400     35.16     35.41    -24.19     25.22
   11.0502     36.04     35.45    -23.35     25.22
   11.0603     35.54     35.49    -23.89     25.22
   11.0705     34.85     35.53    -24.62     25.22
   11.0807     35.75     35.57    -23.76     25.22
   11.0908     35.07     35.61    -24.48     25.22
   11.1010     35.33     35.65    -24.26     25.22
   11.1112     35.73     35.69    -23.90     25.22
   11.1213     36.80     35.73    -22.87     25.22
   11.1315     36.54     35.77    -23.17     25.22
   11.1417     35.92     35.81    -23.83     25.22
   11.1518     36.49     35.85    -23.30     25.22
   11.1620     35.85     35.89    -23.99     25.22
   11.1722     36.41     35.94    -23.47     25.22
   11.1823     35.70     35.98    -24.22     25.22
   11.1925     34.67     36.02    -25.29     25.22
   11.2026     36.30     36.06    -23.70     25.22
   11.2128     36.34     36.10    -23.70     25.22
   11.2230     35.98     36.14    -24.11     25.22
   11.2331     36.35     36.19    -23.78     25.22
   11.2433     36.42     36.23    -23.75     25.22
   11.2535     35.99     36.27    -24.22     25.22
   11.2636     35.59     36.31    -24.66     25.22
   11.2738     35.78     36.35    -24.52     25.22
   11.2840     36.43     36.40    -23.91     25.22
   11.2941     36.13     36.44    -24.25     25.22
   11.3043     36.88     36.48    -23.54     25.22
   11.3145     36.11     36.52    -24.36     25.22
   11.3246     37.10     36.57    -23.41     25.22
   11.3348     36.93     36.61    -23.62     25.22
   11.3449     36.45     36.65    -24.15     25.23
   11.3551     36.10     36.70    -24.54     25.23
   11.3653     35.84     36.74    -24.84     25.23
   11.3754     37.24     36.78    -23.49     25.23
   11.3856     36.91     36.83    -23.86     25.23
   11.3958     37.21     36.87    -23.60     25.23
   11.4059     37.16     36.91    -23.70     25.23
   11.4161     36.82     36.96    -24.08     25.23
   11.4263     36.48     37.00    -24.47     25.23
   11.4364     36.46     37.05    -24.53     25.23
   11.4466     37.94     37.09    -23.09     25.23
   11.4568     37.52     37.14    -23.56     25.23
   11.4669     36.90     37.18    -24.22     25.23
   11.4771     37.28     37.23    -23.89     25.23
   11.4873     36.90     37.27    -24.31     25.23
   11.4974     38.10     37.31    -23.16     25.23
   11.5076     35.87     37.36    -25.43     25.23
   11.5177     36.37     37.40    -24.98     25.23
   11.5279     36.72     37.45    -24.67     25.23
   11.5381     36.84     37.50    -24.60     25.23
   11.5482     37.21     37.54    -24.27     25.23
   11.5584     37.32     37.59    -24.21     25.23
   11.5686     37.71     37.63    -23.86     25.23
   11.5787     37.02     37.68    -24.60     25.23
   11.5889     37.18     37.72    -24.49     25.23
   11.5991     38.27     37.77    -23.44     25.23
   11.6092     37.98     37.82    -23.78     25.23
   11.6194     37.88     37.86    -23.92     25.23
   11.6296     37.80     37.91    -24.05     25.23
   11.6397     38.38     37.95    -23.52     25.23
   11.6499     38.66     38.00    -23.28     25.23
   11.6600     37.17     38.05    -24.82     25.23
   11.6702     37.94     38.10    -24.10     25.23
   11.6804     38.04     38.14    -24.04     25.23
   11.6905     38.51     38.19    -23.62     25.23
   11.7007     37.91     38.24    -24.27     25.23
   11.7109     39.16     38.28    -23.07     25.23
   11.7210     37.92     38.33    -24.35     25.23
   11.7312     38.68     38.38    -23.64     25.23
   11.7414     39.09     38.43    -23.28     25.23
   11.7515     38.39     38.47    -24.03     25.23
   11.7617     38.07     38.52    -24.39     25.23
   11.7719     38.45     38.57    -24.06     25.23
   11.7820     38.57     38.62    -23.99     25.23
   11.7922     38.78     38.67    -23.83     25.23
   11.8023     38.43     38.71    -24.23     25.24
   11.8125     38.87     38.76    -23.83     25.24
   11.8227     38.96     38.81    -23.79     25.24
   11.8328     37.78     38.86    -25.02     25.24
   11.8430     38.07     38.91    -24.78     25.24
   11.8532     38.59     38.96    -24.31     25.24
   11.8633     38.19     39.01    -24.76     25.24
   11.8735     39.71     39.06    -23.29     25.24
   11.8837     38.23     39.11    -24.82     25.24
   11.8938     38.38     39.15    -24.72     25.24
   11.9040     38.80     39.20    -24.35     25.24
   11.9142     38.40     39.25    -24.80     25.24
   11.9243     38.55     39.30    -24.70     25.24
   11.9345     39.16     39.35    -24.14     25.24
   11.9447     38.99     39.40    -24.36     25.24
   11.9548     38.46     39.45    -24.94     25.24
   11.9650     38.82     39.50    -24.63     25.24
   11.9751     39.78     39.55    -23.72     25.24
   11.9853     38.97     39.60    -24.58     25.24
   11.9955     38.61     39.66    -24.99     25.24
   12.0056     39.05     39.71    -24.60     25.24
   12.0158     39.29     39.76    -24.41     25.24
   12.0260     39.65     39.81    -24.10     25.24
   12.0361     40.00     39.86    -23.80     25.24
   12.0463     39.09     39.91    -24.76     25.24
   12.0565     38.95     39.96    -24.95     25.24
   12.0666     39.02     40.01    -24.93     25.24
   12.0768     38.97     40.06    -25.04     25.24
   12.0870     39.05     40.12    -25.01     25.24
   12.0971     39.15     40.17    -24.96     25.24
   12.1073     38.71     40.22    -25.45     25.24
   12.1174     39.27     40.27    -24.94     25.24
   12.1276     38.93     40.32    -25.34     25.24
   12.1378     39.82     40.38    -24.50     25.24
   12.1479     39.18     40.43    -25.19     25.24
   12.1581     40.29     40.48    -24.13     25.24
   12.1683     39.34     40.53    -25.14     25.24
   12.1784     39.80     40.59    -24.73     25.24
   12.1886     39.80     40.64    -24.78     25.24
   12.1988     39.62     40.69    -25.01     25.24
   12.2089     40.39     40.74    -24.30     25.24
   12.2191     40.55     40.80    -24.19     25.24
   12.2293     39.26     40.85    -25.53     25.24
   12.2394     40.49     40.90    -24.36     25.24
   12.2496     39.63     40.96    -25.27     25.25
   12.2598     40.55     41.01    -24.40     25.25
   12.2699     40.59     41.07    -24.42     25.25
   12.2801     41.02     41.12    -24.04     25.25
   12.2902     39.30     41.17    -25.82     25.25
   12.3004     41.40     41.23    -23.77     25.25
   12.3106     40.68     41.28    -24.54     25.25
   12.3207     40.64     41.34    -24.64     25.25
   12.3309     40.24     41.39    -25.09     25.25
   12.3411     40.27     41.45    -25.12     25.25
   12.3512     40.46     41.50    -24.98     25.25
   12.3614     41.13     41.56    -24.37     25.25
   12.3716     40.41     41.61    -25.14     25.25
   12.3817     40.30     41.67    -25.31     25.25
   12.3919     41.03     41.72    -24.63     25.25
   12.4021     40.98     41.78    -24.74     25.25
   12.4122     40.80     41.83    -24.98     25.25
   12.4224     41.04     41.89    -24.79     25.25
   12.4325     41.41     41.94    -24.48     25.25
   12.4427     41.39     42.00    -24.55     25.25
   12.4529     40.99     42.06    -25.01     25.25
   12.4630     41.87     42.11    -24.18     25.25
   12.4732     42.16     42.17    -23.95     25.25
   12.4834     42.46     42.23    -23.71     25.25
   12.4935     42.27     42.28    -23.95     25.25
   12.5037     41.82     42.34    -24.46     25.25
   12.5139     41.63     42.40    -24.71     25.25
   12.5240     41.96     42.45    -24.44     25.25
   12.5342     41.30     42.51    -25.15     25.25
   12.5444     41.51     42.57    -25.00     25.25
   12.5545     43.14     42.62    -23.43     25.25
   12.5647     41.96     42.68    -24.66     25.25
   12.5749     42.52     42.74    -24.16     25.25
   12.5850     42.20     42.80    -24.54     25.25
   12.5952     41.93     42.86    -24.87     25.25
   12.6053     43.38     42.91    -23.48     25.25
   12.6155     41.37     42.97    -25.54     25.25
   12.6257     41.90     43.03    -25.07     25.25
   12.6358     42.58     43.09    -24.45     25.25
   12.6460     43.01     43.15    -24.08     25.25
   12.6562     42.59     43.21    -24.56     25.25
   12.6663     42.54     43.27    -24.67     25.25
   12.6765     41.89     43.32    -25.38     25.25
   12.6867     43.19     43.38    -24.14     25.25
   12.6968     43.26     43.44    -24.12     25.25
   12.7070     42.58     43.50    -24.86     25.26
   12.7172     41.67     43.56    -25.83     25.26
   12.7273     44.00     43.62    -23.56     25.26
   12.7375     43.38     43.68    -24.24     25.26
   12.7476     43.84     43.74    -23.84     25.26
   12.7578     43.22     43.80    -24.52     25.26
   12.7680     42.53     43.86    -25.27     25.26
   12.7781     44.29     43.92    -23.57     25.26
   12.7883     42.93     43.98    -25.00     25.26
   12.7985     42.63     44.04    -25.36     25.26
   12.8086     43.79     44.10    -24.26     25.26
   12.8188     42.71     44.17    -25.40     25.26
   12.8290     42.52     44.23    -25.65     25.26
   12.8391     43.08     44.29    -25.15     25.26
   12.8493     44.06     44.35    -24.23     25.26
   12.8595     44.52     44.41    -23.83     25.26
   12.8696     44.35     44.47    -24.06     25.26
   12.8798     44.53     44.53    -23.95     25.26
   12.8900     44.29     44.60    -24.25     25.26
   12.9001     43.59     44.66    -25.01     25.26
   12.9103     43.84     44.72    -24.82     25.26
   12.9204     44.18     44.78    -24.55     25.26
   12.9306     44.77     44.85    -24.02     25.26
   12.9408     43.25     44.91    -25.60     25.26
   12.9509     43.84     44.97    -25.07     25.26
   12.9611     43.76     45.04    -25.22     25.26
   12.9713     44.35     45.10    -24.69     25.26
   12.9814     43.66     45.16    -25.44     25.26
   12.9916     43.88     45.23    -25.29     25.26
   13.0018     45.52     45.29    -23.71     25.26
   13.0119     44.16     45.35    -25.14     25.26
   13.0221     44.80     45.42    -24.56     25.26
   13.0323     45.26     45.48    -24.16     25.26
   13.0424     45.09     45.55    -24.40     25.26
   13.0526     44.71     45.61    -24.84     25.26
   13.0627     45.10     45.67    -24.52     25.26
   13.0729     45.40     45.74    -24.28     25.26
   13.0831     45.30     45.81    -24.45     25.26
   13.0932     46.30     45.87    -23.51     25.26
   13.1034     43.42     45.94    -26.46     25.26
   13.1136     45.20     46.00    -24.74     25.26
   13.1237     45.15     46.07    -24.86     25.26
   13.1339     45.44     46.13    -24.64     25.26
   13.1441     46.05     46.20    -24.09     25.26
   13.1542     44.62     46.27    -25.59     25.26
   13.1644     45.88     46.33    -24.39     25.27
   13.1746     47.23     46.40    -23.11     25.27
   13.1847     45.98     46.47    -24.43     25.27
   13.1949     45.90     46.53    -24.57     25.27
   13.2051     46.02     46.60    -24.52     25.27
   13.2152     45.57     46.67    -25.04     25.27
   13.2254     46.45     46.73    -24.23     25.27
   13.2355     44.91     46.80    -25.83     25.27
   13.2457     46.83     46.87    -23.98     25.27
   13.2559     45.68     46.94    -25.20     25.27
   13.2660     45.32     47.01    -25.63     25.27
   13.2762     45.87     47.07    -25.15     25.27
   13.2864     45.63     47.14    -25.46     25.27
   13.2965     46.48     47.21    -24.67     25.27
   13.3067     46.81     47.28    -24.41     25.27
   13.3169     45.88     47.35    -25.41     25.27
   13.3270     46.20     47.42    -25.16     25.27
   13.3372     47.02     47.49    -24.41     25.27
   13.3474     47.41     47.56    -24.09     25.27
   13.3575     47.02     47.63    -24.55     25.27
   13.3677     46.48     47.70    -25.16     25.27
   13.3778     46.68     47.77    -25.03     25.27
   13.3880     46.82     47.84    -24.96     25.27
   13.3982     47.32     47.91    -24.53     25.27
   13.4083     47.11     47.98    -24.81     25.27
   13.4185     48.12     48.05    -23.88     25.27
   13.4287     47.29     48.13    -24.78     25.27
   13.4388     47.82     48.20    -24.32     25.27
   13.4490     47.54     48.27    -24.67     25.27
   13.4592     47.91     48.34    -24.37     25.27
   13.4693     48.22     48.41    -24.14     25.27
   13.4795     48.70     48.49    -23.73     25.27
   13.4897     48.02     48.56    -24.48     25.27
   13.4998     48.27     48.63    -24.30     25.27
   13.5100     48.04     48.71    -24.61     25.27
   13.5201     48.21     48.78    -24.51     25.27
   13.5303     48.34     48.85    -24.45     25.27
   13.5405     48.57     48.93    -24.30     25.27
   13.5506     49.20     49.00    -23.74     25.27
   13.5608     49.38     49.07    -23.64     25.27
   13.5710     47.95     49.15    -25.14     25.27
   13.5811     49.29     49.22    -23.88     25.27
   13.5913     49.55     49.30    -23.69     25.27
   13.6015     48.85     49.38    -24.47     25.27
   13.6116     49.47     49.45    -23.92     25.27
   13.6218     49.15     49.53    -24.32     25.28
   13.6320     48.75     49.60    -24.80     25.28
   13.6421     48.98     49.68    -24.64     25.28
   13.6523     49.34     49.76    -24.36     25.28
   13.6625     49.64     49.83    -24.14     25.28
   13.6726     49.15     49.91    -24.70     25.28
   13.6828     49.66     49.99    -24.27     25.28
   13.6929     49.24     50.07    -24.77     25.28
   13.7031     50.40     50.14    -23.69     25.28
   13.7133     50.76     50.22    -23.40     25.28
   13.7234     49.18     50.30    -25.06     25.28
   13.7336     50.71     50.38    -23.61     25.28
   13.7438     49.48     50.46    -24.92     25.28
   13.7539     49.59     50.54    -24.89     25.28
   13.7641     50.25     50.62    -24.31     25.28
   13.7743     50.19     50.70    -24.45     25.28
   13.7844     50.09     50.78    -24.63     25.28
   13.7946     51.58     50.86    -23.22     25.28
   13.8048     51.33     50.94    -23.55     25.28
   13.8149     51.92     51.02    -23.04     25.28
   13.8251     52.57     51.10    -22.47     25.28
   13.8352     51.38     51.18    -23.75     25.28
   13.8454     50.54     51.27    -24.67     25.28
   13.8556     52.65     51.35    -22.64     25.28
   13.8657     51.07     51.43    -24.30     25.28
   13.8759     51.59     51.51    -23.87     25.28
   13.8861     51.05     51.60    -24.49     25.28
   13.8962     53.34     51.68    -22.28     25.28
   13.9064     50.93     51.77    -24.78     25.28
   13.9166     53.32     51.85    -22.47     25.28
   13.9267     50.82     51.93    -25.06     25.28
   13.9369     51.88     52.02    -24.08     25.28
   13.9471     53.11     52.10    -22.94     25.28
   13.9572     52.38     52.19    -23.75     25.28
   13.9674     52.13     52.28    -24.09     25.28
   13.9776     53.86     52.36    -22.44     25.28
   13.9877     52.67     52.45    -23.72     25.28
   13.9979     51.82     52.54    -24.66     25.28
   14.0080     54.14     52.62    -22.43     25.28
   14.0182     52.38     52.71    -24.27     25.28
   14.0284     53.47     52.80    -23.27     25.28
   14.0385     53.71     52.89    -23.12     25.28
   14.0487     54.34     52.98    -22.58     25.28
   14.0589     53.10     53.07    -23.91     25.28
   14.0690     52.65     53.16    -24.45     25.28
   14.0792     53.31     53.25    -23.88     25.29
   14.0894     53.96     53.34    -23.32     25.29
   14.0995     54.02     53.43    -23.35     25.29
   14.1097     54.47     53.52    -22.99     25.29
   14.1199     53.43     53.61    -24.12     25.29
   14.1300     55.09     53.70    -22.55     25.29
   14.1402     54.63     53.79    -23.11     25.29
   14.1503     52.98     53.89    -24.85     25.29
   14.1605     53.99     53.98    -23.93     25.29
   14.1707     53.69     54.07    -24.33     25.29
   14.1808     54.18     54.17    -23.93     25.29
   14.1910     54.35     54.26    -23.85     25.29
   14.2012     55.02     54.36    -23.28     25.29
   14.2113     54.38     54.45    -24.01     25.29
   14.2215     55.68     54.55    -22.81     25.29
   14.2317     55.78     54.65    -22.81     25.29
   14.2418     54.26     54.74    -24.42     25.29
   14.2520     55.63     54.84    -23.15     25.29
   14.2622     54.76     54.94    -24.12     25.29
   14.2723     55.29     55.03    -23.69     25.29
   14.2825     55.32     55.13    -23.75     25.29
   14.2927     56.15     55.23    -23.02     25.29
   14.3028     57.06     55.33    -22.21     25.29
   14.3130     57.03     55.43    -22.34     25.29
   14.3231     56.90     55.53    -22.57     25.29
   14.3333     56.35     55.63    -23.22     25.29
   14.3435     55.44     55.73    -24.24     25.29
   14.3536     55.95     55.83    -23.83     25.29
   14.3638     56.24     55.94    -23.64     25.29
   14.3740     56.18     56.04    -23.80     25.29
   14.3841     56.54     56.14    -23.54     25.29
   14.3943     56.78     56.25    -23.41     25.29
   14.4045     57.12     56.35    -23.17     25.29
   14.4146     57.51     56.45    -22.89     25.29
   14.4248     56.88     56.56    -23.62     25.29
   14.4350     57.59     56.67    -23.02     25.29
   14.4451     57.93     56.77    -22.78     25.29
   14.4553     56.65     56.88    -24.17     25.29
   14.4654     58.11     56.99    -22.82     25.29
   14.4756     58.86     57.09    -22.18     25.29
   14.4858     57.35     57.20    -23.79     25.29
   14.4959     58.34     57.31    -22.91     25.29
   14.5061     57.27     57.42    -24.09     25.29
   14.5163     57.90     57.53    -23.57     25.29
   14.5264     58.82     57.64    -22.76     25.30
   14.5366     57.62     57.75    -24.07     25.30
   14.5468     57.72     57.86    -24.09     25.30
   14.5569     58.88     57.98    -23.04     25.30
   14.5671     57.99     58.09    -24.04     25.30
   14.5773     58.84     58.20    -23.31     25.30
   14.5874     58.79     58.32    -23.47     25.30
   14.5976     59.69     58.43    -22.68     25.30
   14.6078     59.59     58.55    -22.90     25.30
   14.6179     59.37     58.66    -23.23     25.30
   14.6281     59.67     58.78    -23.05     25.30
   14.6382     60.43     58.89    -22.41     25.30
   14.6484     60.63     59.01    -22.32     25.30
   14.6586     59.21     59.13    -23.86     25.30
   14.6687     59.84     59.25    -23.35     25.30
   14.6789     60.55     59.37    -22.76     25.30
   14.6891     60.59     59.49    -22.84     25.30
   14.6992     60.50     59.61    -23.05     25.30
   14.7094     59.97     59.73    -23.70     25.30
   14.7196     59.87     59.85    -23.92     25.30
   14.7297     60.87     59.97    -23.05     25.30
   14.7399     60.12     60.10    -23.92     25.30
   14.7501     60.79     60.22    -23.37     25.30
   14.7602     61.33     60.35    -22.96     25.30
   14.7704     62.02     60.47    -22.39     25.30
   14.7805     62.41     60.60    -22.13     25.30
   14.7907     60.84     60.72    -23.82     25.30
   14.8009     62.85     60.85    -21.94     25.30
   14.8110     60.87     60.98    -24.05     25.30
   14.8212     61.84     61.11    -23.21     25.30
   14.8314     62.84     61.24    -22.34     25.30
   14.8415     63.74     61.36    -21.57     25.30
   14.8517     61.66     61.49    -23.78     25.30
   14.8619     62.80     61.63    -22.77     25.30
   14.8720     63.18     61.76    -22.52     25.30
   14.8822     62.49     61.89    -23.34     25.30
   14.8924     63.65     62.02    -22.32     25.30
   14.9025     62.87     62.16    -23.23     25.30
   14.9127     63.93     62.29    -22.30     25.30
   14.9229     63.27     62.43    -23.10     25.30
   14.9330     63.61     62.56    -22.89     25.30
   14.9432     63.02     62.70    -23.62     25.30
   14.9533     64.38     62.84    -22.40     25.30
   14.9635     62.51     62.97    -24.41     25.30
   14.9737     62.76     63.11    -24.30     25.30
   14.9838     64.66     63.25    -22.53     25.31
   14.9940     64.88     63.39    -22.45     25.31
   15.0042     64.65     63.53    -22.83     25.31
   15.0143     64.62     63.67    -23.00     25.31
   15.0245     65.22     63.82    -22.54     25.31
   15.0347     64.79     63.96    -23.11     25.31
   15.0448     65.47     64.10    -22.58     25.31
   15.0550     64.66     64.25    -23.53     25.31
   15.0652     66.74     64.40    -21.60     25.31
   15.0753     64.99     64.54    -23.49     25.31
   15.0855     65.01     64.69    -23.62     25.31
   15.0956     65.21     64.83    -23.57     25.31
   15.1058     64.45     64.98    -24.48     25.31
   15.1160     66.84     65.13    -22.24     25.31
   15.1261     67.20     65.28    -22.02     25.31
   15.1363     66.48     65.43    -22.90     25.31
   15.1465     66.10     65.59    -23.43     25.31
   15.1566     66.46     65.74    -23.22     25.31
   15.1668     66.95     65.89    -22.88     25.31
   15.1770     67.36     66.04    -22.63     25.31
   15.1871     66.64     66.20    -23.50     25.31
   15.1973     67.51     66.35    -22.79     25.31
   15.2075     67.26     66.51    -23.19     25.31
   15.2176     67.54     66.67    -23.07     25.31
   15.2278     67.45     66.82    -23.32     25.31
   15.2380     68.72     66.98    -22.21     25.31
   15.2481     67.37     67.14    -23.71     25.31
   15.2583     68.09     67.30    -23.15     25.31
   15.2684     68.49     67.46    -22.91     25.31
   15.2786     69.42     67.62    -22.15     25.31
   15.2888     68.93     67.79    -22.80     25.31
   15.2989     68.44     67.95    -23.45     25.31
   15.3091     68.51     68.11    -23.55     25.31
   15.3193     70.22     68.28    -22.00     25.31
   15.3294     69.26     68.44    -23.13     25.31
   15.3396     69.59     68.61    -22.96     25.31
   15.3498     69.97     68.78    -22.75     25.31
   15.3599     69.91     68.95    -22.98     25.31
   15.3701     69.31     69.11    -23.75     25.31
   15.3803     69.95     69.28    -23.28     25.31
   15.3904     70.62     69.45    -22.78     25.31
   15.4006     68.37     69.63    -25.20     25.31
   15.4107     70.74     69.80    -23.00     25.31
   15.4209     70.56     69.97    -23.35     25.31
   15.4311     70.91     70.14    -23.18     25.31
   15.4412     71.20     70.32    -23.06     25.32
   15.4514     72.22     70.49    -22.21     25.32
   15.4616     71.50     70.67    -23.11     25.32
   15.4717     72.71     70.84    -22.08     25.32
   15.4819     71.80     71.02    -23.16     25.32
   15.4921     70.23     71.20    -24.91     25.32
   15.5022     71.96     71.38    -23.36     25.32
   15.5124     72.65     71.56    -22.85     25.32
   15.5226     72.27     71.74    -23.41     25.32
   15.5327     72.48     71.92    -23.38     25.32
   15.5429     71.65     72.10    -24.40     25.32
   15.5530     73.60     72.29    -22.63     25.32
   15.5632     73.00     72.47    -23.41     25.32
   15.5734     73.39     72.66    -23.21     25.32
   15.5835     74.71     72.84    -22.07     25.32
   15.5937     73.95     73.03    -23.02     25.32
   15.6039     73.55     73.21    -23.61     25.32
   15.6140     74.01     73.40    -23.33     25.32
   15.6242     73.77     73.59    -23.76     25.32
   15.6344     75.32     73.78    -22.40     25.32
   15.6445     74.02     73.97    -23.89     25.32
   15.6547     75.66     74.16    -22.44     25.32
   15.6649     73.98     74.35    -24.31     25.32
   15.6750     74.32     74.54    -24.16     25.32
   15.6852     75.63     74.73    -23.05     25.32
   15.6954     75.08     74.93    -23.79     25.32
   15.7055     75.07     75.12    -23.99     25.32
   15.7157     76.23     75.32    -23.03     25.32
   15.7258     75.73     75.51    -23.72     25.32
   15.7360     75.18     75.71    -24.47     25.32
   15.7462     76.12     75.91    -23.73     25.32
   15.7563     75.76     76.10    -24.29     25.32
   15.7665     76.66     76.30    -23.59     25.32
   15.7767     75.84     76.50    -24.61     25.32
   15.7868     76.27     76.70    -24.37     25.32
   15.7970     76.65     76.90    -24.20     25.32
   15.8072     76.96     77.11    -24.09     25.32
   15.8173     77.05     77.31    -24.20     25.32
   15.8275     78.14     77.51    -23.31     25.32
   15.8377     77.48     77.71    -24.18     25.32
   15.8478     77.46     77.92    -24.40     25.32
   15.8580     78.07     78.12    -23.99     25.32
   15.8681     78.39     78.33    -23.88     25.32
   15.8783     79.29     78.53    -23.19     25.32
   15.8885     79.09     78.74    -23.59     25.32
   15.8986     78.64     78.95    -24.25     25.33
   15.9088     79.94     79.16    -23.16     25.33
   15.9190     79.12     79.37    -24.19     25.33
   15.9291     81.33     79.57    -22.19     25.33
   15.9393     78.94     79.78    -24.79     25.33
   15.9495     80.23     80.00    -23.71     25.33
   15.9596     80.22     80.21    -23.93     25.33
   15.9698     78.49     80.42    -25.87     25.33
   15.9800     79.80     80.63    -24.77     25.33
   15.9901     79.71     80.84    -25.07     25.33
   16.0003     80.57     81.06    -24.43     25.33
   16.0105     79.56     81.27    -25.65     25.33
   16.0206     81.90     81.48    -23.53     25.33
   16.0308     81.40     81.70    -24.24     25.33
   16.0409     82.43     81.91    -23.43     25.33
   16.0511     82.24     82.13    -23.83     25.33
   16.0613     81.67     82.35    -24.62     25.33
   16.0714     81.22     82.56    -25.29     25.33
   16.0816     80.15     82.78    -26.57     25.33
   16.0918     82.70     83.00    -24.24     25.33
   16.1019     81.80     83.22    -25.36     25.33
   16.1121     82.71     83.44    -24.67     25.33
   16.1223     82.39     83.66    -25.21     25.33
   16.1324     83.48     83.88    -24.34     25.33
   16.1426     84.13     84.10    -23.91     25.33
   16.1528     83.10     84.32    -25.16     25.33
   16.1629     83.18     84.54    -25.30     25.33
   16.1731     83.73     84.76    -24.97     25.33
   16.1832     83.48     84.98    -25.44     25.33
   16.1934     83.85     85.20    -25.29     25.33
   16.2036     83.09     85.43    -26.28     25.33
   16.2137     82.70     85.65    -26.89     25.33
   16.2239     85.60     85.87    -24.21     25.33
   16.2341     85.13     86.10    -24.91     25.33
   16.2442     85.64     86.32    -24.62     25.33
   16.2544     84.43     86.54    -26.06     25.33
   16.2646     85.07     86.77    -25.64     25.33
   16.2747     85.91     86.99    -25.02     25.33
   16.2849     87.57     87.22    -23.59     25.33
   16.2951     86.76     87.44    -24.63     25.33
   16.3052     86.83     87.67    -24.78     25.33
   16.3154     85.96     87.89    -25.88     25.33
   16.3256     86.37     88.12    -25.69     25.33
   16.3357     86.91     88.35    -25.38     25.33
   16.3459     87.33     88.57    -25.18     25.34
   16.3560     88.81     88.80    -23.93     25.34
   16.3662     87.77     89.03    -25.20     25.34
   16.3764     89.13     89.25    -24.06     25.34
   16.3865     88.63     89.48    -24.79     25.34
   16.3967     89.02     89.71    -24.63     25.34
   16.4069     89.26     89.93    -24.62     25.34
   16.4170     87.84     90.16    -26.26     25.34
   16.4272     89.18     90.39    -25.15     25.34
   16.4374     89.04     90.62    -25.52     25.34
   16.4475     88.48     90.84    -26.30     25.34
   16.4577     88.64     91.07    -26.37     25.34
   16.4679     89.28     91.30    -25.96     25.34
   16.4780     90.44     91.52    -25.03     25.34
   16.4882     89.76     91.75    -25.93     25.34
   16.4983     91.62     91.98    -24.30     25.34
   16.5085     91.07     92.21    -25.08     25.34
   16.5187     89.91     92.43    -26.47     25.34
   16.5288     92.22     92.66    -24.38     25.34
   16.5390     89.89     92.89    -26.94     25.34
   16.5492     91.29     93.12    -25.77     25.34
   16.5593     91.29     93.34    -25.99     25.34
   16.5695     93.62     93.57    -23.89     25.34
   16.5797     92.51     93.80    -25.23     25.34
   16.5898     91.45     94.02    -26.51     25.34
   16.6000     92.60     94.25    -25.59     25.34
   16.6102     93.95     94.47    -24.47     25.34
   16.6203     92.49     94.70    -26.15     25.34
   16.6305     94.21     94.93    -24.66     25.34
   16.6407     93.62     95.15    -25.47     25.34
   16.6508     92.90     95.38    -26.42     25.34
   16.6610     93.63     95.60    -25.91     25.34
   16.6711     94.33     95.82    -25.44     25.34
   16.6813     96.23     96.05    -23.76     25.34
   16.6915     94.99     96.27    -25.22     25.34
   16.7016     95.67     96.49    -24.77     25.34
   16.7118     94.05     96.72    -26.61     25.34
   16.7220     96.18     96.94    -24.70     25.34
   16.7321     96.68     97.16    -24.42     25.34
   16.7423     95.91     97.39    -25.42     25.34
   16.7525     97.70     97.61    -23.85     25.34
   16.7626     96.60     97.83    -25.17     25.34
   16.7728     95.46     98.05    -26.53     25.34
   16.7830     97.45     98.27    -24.76     25.34
   16.7931     96.87     98.49    -25.56     25.34
   16.8033     98.20     98.71    -24.45     25.35
   16.8134     98.80     98.92    -24.06     25.35
   16.8236     97.46     99.14    -25.62     25.35
   16.8338     98.34     99.36    -24.96     25.35
   16.8439     97.57     99.57    -25.95     25.35
   16.8541     98.02     99.79    -25.71     25.35
   16.8643     98.91    100.01    -25.04     25.35
   16.8744    100.57    100.22    -23.59     25.35
   16.8846     99.33    100.43    -25.05     25.35
   16.8948     99.18    100.65    -25.41     25.35
   16.9049    101.27    100.86    -23.53     25.35
   16.9151     99.30    101.07    -25.71     25.35
   16.9253     99.18    101.28    -26.05     25.35
   16.9354    101.47    101.49    -23.97     25.35
   16.9456     99.94    101.70    -25.71     25.35
   16.9558     99.81    101.91    -26.05     25.35
   16.9659    101.52    102.12    -24.54     25.35
   16.9761    101.86    102.33    -24.41     25.35
   16.9862    101.07    102.53    -25.40     25.35
   16.9964    101.49    102.74    -25.19     25.35
   17.0066    100.43    102.94    -26.46     25.35
   17.0167    101.91    103.15    -25.18     25.35
   17.0269    102.73    103.35    -24.56     25.35
   17.0371    101.91    103.55    -25.59     25.35
   17.0472    102.03    103.75    -25.67     25.35
   17.0574    101.27    103.95    -26.63     25.35
   17.0676    102.91    104.15    -25.19     25.35
   17.0777    102.30    104.35    -25.99     25.35
   17.0879    105.18    104.55    -23.31     25.35
   17.0981    103.24    104.75    -25.45     25.35
   17.1082    103.21    104.94    -25.67     25.35
   17.1184    103.56    105.14    -25.52     25.35
   17.1285    102.13    105.33    -27.14     25.35
   17.1387    103.49    105.52    -25.97     25.35
   17.1489    104.04    105.71    -25.61     25.35
   17.1590    103.30    105.90    -26.54     25.35
   17.1692    106.60    106.09    -23.43     25.35
   17.1794    104.42    106.28    -25.80     25.35
   17.1895    104.91    106.47    -25.50     25.35
   17.1997    104.35    106.65    -26.25     25.35
   17.2099    106.79    106.84    -23.99     25.35
   17.2200    105.75    107.02    -25.22     25.35
   17.2302    105.19    107.21    -25.96     25.35
   17.2404    106.94    107.39    -24.39     25.35
   17.2505    106.91    107.57    -24.60     25.35
   17.2607    106.52    107.75    -25.18     25.36
   17.2709    106.80    107.94    -25.08     25.36
   17.2810    106.87    108.11    -25.19     25.36
   17.2912    107.21    108.29    -25.02     25.36
   17.3013    109.02    108.47    -23.39     25.36
   17.3115    105.84    108.65    -26.75     25.36
   17.3217    108.05    108.82    -24.72     25.36
   17.3318    110.41    109.00    -22.53     25.36
   17.3420    107.02    109.18    -26.10     25.36
   17.3522    107.81    109.35    -25.48     25.36
   17.3623    108.95    109.53    -24.52     25.36
   17.3725    109.74    109.70    -23.90     25.36
   17.3827    109.21    109.88    -24.61     25.36
   17.3928    110.09    110.05    -23.90     25.36
   17.4030    109.55    110.22    -24.62     25.36
   17.4132    111.18    110.40    -23.16     25.36
   17.4233    110.59    110.57    -23.92     25.36
   17.4335    110.28    110.75    -24.41     25.36
   17.4436    111.88    110.92    -22.99     25.36
   17.4538    112.21    111.10    -22.83     25.36
   17.4640    110.36    111.28    -24.86     25.36
   17.4741    111.11    111.46    -24.29     25.36
   17.4843    112.66    111.64    -22.92     25.36
   17.4945    111.57    111.82    -24.19     25.36
   17.5046    112.55    112.01    -23.40     25.36
   17.5148    113.88    112.19    -22.26     25.36
   17.5250    113.26    112.38    -23.06     25.36
   17.5351    113.57    112.57    -22.95     25.36
   17.5453    114.02    112.77    -22.69     25.36
   17.5555    113.57    112.97    -23.34     25.36
   17.5656    115.10    113.17    -22.01     25.36
   17.5758    113.24    113.38    -24.08     25.36
   17.5859    115.12    113.59    -22.41     25.36
   17.5961    116.49    113.80    -21.26     25.36
   17.6063    116.74    114.03    -21.23     25.36
   17.6164    117.20    114.25    -20.99     25.36
   17.6266    115.20    114.49    -23.23     25.36
   17.6368    117.06    114.73    -21.61     25.36
   17.6469    115.81    114.98    -23.11     25.36
   17.6571    117.54    115.24    -21.64     25.36
   17.6673    118.55    115.50    -20.89     25.36
   17.6774    118.43    115.78    -21.29     25.36
   17.6876    118.27    116.06    -21.74     25.36
   17.6978    119.05    116.36    -21.25     25.36
   17.7079    119.24    116.67    -21.37     25.36
   17.7181    119.69    116.99    -21.24     25.37
   17.7283    122.10    117.32    -19.17     25.37
   17.7384    121.84    117.67    -19.77     25.37
   17.7486    120.32    118.03    -21.66     25.37
   17.7587    122.68    118.41    -19.67     25.37
   17.7689    123.12    118.81    -19.63     25.37
   17.7791    121.40    119.22    -21.76     25.37
   17.7892    123.48    119.65    -20.11     25.37
   17.7994    123.32    120.10    -20.72     25.37
   17.8096    124.54    120.57    -19.97     25.37
   17.8197    126.44    121.06    -18.56     25.37
   17.8299    125.16    121.58    -20.36     25.37
   17.8401    124.95    122.12    -21.11     25.37
   17.8502    128.45    122.68    -18.17     25.37
   17.8604    127.80    123.27    -19.41     25.37
   17.8706    126.34    123.88    -21.49     25.37
   17.8807    127.05    124.52    -21.41     25.37
   17.8909    130.71    125.19    -18.43     25.37
   17.9010    128.72    125.89    -21.11     25.37
   17.9112    130.73    126.63    -19.84     25.37
   17.9214    131.33    127.39    -20.00     25.37
   17.9315    132.10    128.18    -20.03     25.37
   17.9417    133.01    129.02    -19.95     25.37
   17.9519    132.20    129.89    -21.63     25.37
   17.9620    135.38    130.78    -19.34     25.37
   17.9722    135.04    131.72    -20.63     25.37
   17.9824    134.98    132.70    -21.67     25.37
   17.9925    136.35    133.71    -21.30     25.37
   18.0027    139.51    134.77    -19.20     25.37
   18.0129    137.25    135.87    -22.56     25.37
   18.0230    139.99    137.00    -20.95     25.37
   18.0332    139.39    138.18    -22.73     25.37
   18.0434    140.18    139.40    -23.17     25.37
   18.0535    140.98    140.66    -23.62     25.37
   18.0637    143.59    141.97    -22.32     25.37
   18.0738    145.36    143.31    -21.89     25.37
   18.0840    143.87    144.71    -24.78     25.37
   18.0942    147.25    146.15    -22.84     25.37
   18.1043    146.88    147.62    -24.68     25.37
   18.1145    147.65    149.15    -25.44     25.37
   18.1247    150.05    150.73    -24.62     25.37
   18.1348    151.84    152.33    -24.43     25.37
   18.1450    151.59    153.99    -26.34     25.37
   18.1552    155.15    155.69    -24.48     25.37
   18.1653    155.10    157.42    -26.26     25.38
   18.1755    158.06    159.21    -25.09     25.38
   18.1857    158.52    161.04    -26.46     25.38
   18.1958    158.71    162.88    -28.12     25.38
   18.2060    159.40    164.79    -29.33     25.38
   18.2161    165.09    166.71    -25.56     25.38
   18.2263    163.73    168.69    -28.90     25.38
   18.2365    167.46    170.70    -27.18     25.38
   18.2466    169.36    172.72    -27.30     25.38
   18.2568    169.61    174.79    -29.12     25.38
   18.2670    171.79    176.89    -29.04     25.38
   18.2771    174.24    178.99    -28.69     25.38
   18.2873    176.68    181.14    -28.40     25.38
   18.2975    174.60    183.31    -32.65     25.38
   18.3076    180.17    185.47    -29.24     25.38
   18.3178    181.60    187.67    -30.02     25.38
   18.3280    181.26    189.89    -32.57     25.38
   18.3381    187.70    192.09    -28.33     25.38
   18.3483    189.29    194.32    -28.97     25.38
   18.3585    190.27    196.55    -30.22     25.38
   18.3686    194.48    198.76    -28.22     25.38
   18.3788    196.30    200.98    -28.62     25.38
   18.3889    196.95    203.18    -30.17     25.38
   18.3991    201.46    205.39    -27.87     25.38
   18.4093    202.60    207.58    -28.92     25.38
   18.4194    203.87    209.73    -29.80     25.38
   18.4296    208.94    211.88    -26.88     25.38
   18.4398    211.71    214.00    -26.24     25.38
   18.4499    208.68    216.08    -31.34     25.38
   18.4601    214.67    218.14    -27.41     25.38
   18.4703    219.26    220.16    -24.84     25.38
   18.4804    219.37    222.12    -26.69     25.38
   18.4906    223.81    224.05    -24.18     25.38
   18.5008    226.41    225.93    -23.46     25.38
   18.5109    230.40    227.74    -21.28     25.38
   18.5211    231.09    229.51    -22.37     25.38
   18.5312    234.79    231.21    -20.36     25.38
   18.5414    233.72    232.85    -23.08     25.38
   18.5516    235.90    234.43    -22.47     25.38
   18.5617    238.45    235.92    -21.41     25.38
   18.5719    240.59    237.35    -20.71     25.38
   18.5821    245.11    238.71    -17.54     25.38
   18.5922    247.77    239.97    -16.14     25.38
   18.6024    247.03    241.16    -18.07     25.38
   18.6126    248.94    242.26    -17.26     25.38
   18.6227    254.10    243.26    -13.10     25.39
   18.6329    251.83    244.19    -16.30     25.39
   18.6431    254.10    245.02    -14.86     25.39
   18.6532    255.33    245.74    -14.36     25.39
   18.6634    252.88    246.38    -17.44     25.39
   18.6736    255.27    246.92    -15.59     25.39
   18.6837    255.70    247.36    -15.60     25.39
   18.6939    257.25    247.70    -14.39     25.39
   18.7040    259.57    247.94    -12.31     25.39
   18.7142    257.71    248.07    -14.31     25.39
   18.7244    254.84    248.11    -17.21     25.39
   18.7345    258.54    248.04    -13.45     25.39
   18.7447    258.24    247.88    -13.58     25.39
   18.7549    255.26    247.61    -16.29     25.39
   18.7650    252.52    247.24    -18.66     25.39
   18.7752    254.26    246.77    -16.46     25.39
   18.7854    249.53    246.21    -20.62     25.39
   18.7955    252.37    245.55    -17.12     25.39
   18.8057    248.67    244.79    -20.06     25.39
   18.8159    246.96    243.93    -20.92     25.39
   18.8260    246.66    243.00    -20.28     25.39
   18.8362    244.73    241.96    -21.17     25.39
   18.8463    242.13    240.85    -22.66     25.39
   18.8565    241.62    239.64    -21.97     25.39
   18.8667    238.41    238.36    -23.89     25.39
   18.8768    235.27    237.00    -25.67     25.39
   18.8870    233.67    235.56    -25.83     25.39
   18.8972    231.69    234.05    -26.30     25.39
   18.9073    229.02    232.48    -27.40     25.39
   18.9175    227.76    230.83    -27.01     25.39
   18.9277    226.56    229.12    -26.50     25.39
   18.9378    222.52    227.36    -28.79     25.39
   18.9480    221.20    225.54    -28.28     25.39
   18.9582    218.65    223.67    -28.96     25.39
   18.9683    215.04    221.76    -30.67     25.39
   18.9785    214.41    219.80    -29.33     25.39
   18.9887    211.75    217.80    -29.99     25.39
   18.9988    210.11    215.78    -29.61     25.39
   19.0090    205.16    213.71    -32.50     25.39
   19.0191    205.90    211.64    -29.68     25.39
   19.0293    201.26    209.52    -32.21     25.39
   19.0395    201.01    207.39    -30.32     25.39
   19.0496    198.46    205.26    -30.74     25.39
   19.0598    195.63    203.10    -31.41     25.39
   19.0700    193.54    200.93    -31.33     25.39
   19.0801    191.25    198.78    -31.47     25.40
   19.0903    189.33    196.61    -31.22     25.40
   19.1005    188.48    194.44    -29.90     25.40
   19.1106    186.71    192.30    -29.53     25.40
   19.1208    183.07    190.15    -31.02     25.40
   19.1310    183.05    188.01    -28.90     25.40
   19.1411    180.13    185.91    -29.73     25.40
   19.1513    178.01    183.81    -29.75     25.40
   19.1614    176.76    181.76    -28.94     25.40
   19.1716    176.99    179.71    -26.66     25.40
   19.1818    171.95    177.68    -29.67     25.40
   19.1919    172.54    175.71    -27.11     25.40
   19.2021    171.16    173.75    -26.53     25.40
   19.2123    167.79    171.82    -27.97     25.40
   19.2224    167.10    169.95    -26.79     25.40
   19.2326    168.24    168.10    -23.80     25.40
   19.2428    163.50    166.29    -26.73     25.40
   19.2529    165.10    164.54    -23.38     25.40
   19.2631    162.63    162.81    -24.13     25.40
   19.2733    158.93    161.13    -26.14     25.40
   19.2834    160.70    159.51    -22.76     25.40
   19.2936    160.00    157.92    -21.87     25.40
   19.3038    158.14    156.38    -22.18     25.40
   19.3139    157.24    154.90    -21.61     25.40
   19.3241    156.34    153.46    -21.06     25.40
   19.3342    153.34    152.07    -22.68     25.40
   19.3444    155.40    150.73    -19.27     25.40
   19.3546    152.74    149.43    -20.63     25.40
   19.3647    152.37    148.19    -19.76     25.40
   19.3749    153.10    146.99    -17.83     25.40
   19.3851    150.10    145.84    -19.68     25.40
   19.3952    149.08    144.75    -19.61     25.40
   19.4054    149.57    143.70    -18.07     25.40
   19.4156    146.80    142.69    -19.83     25.40
   19.4257    147.20    141.74    -18.48     25.40
   19.4359    147.29    140.83    -17.48     25.40
   19.4461    144.36    139.96    -19.55     25.40
   19.4562    143.16    139.15    -19.93     25.40
   19.4664    144.32    138.38    -18.00     25.40
   19.4765    144.22    137.65    -17.38     25.40
   19.4867    142.70    136.96    -18.21     25.40
   19.4969    144.74    136.32    -15.52     25.40
   19.5070    142.92    135.72    -16.74     25.40
   19.5172    139.95    135.15    -19.14     25.40
   19.5274    140.66    134.62    -17.91     25.40
   19.5375    141.34    134.14    -16.74     25.41
   19.5477    139.77    133.69    -17.86     25.41
   19.5579    138.77    133.27    -18.44     25.41
   19.5680    139.65    132.89    -17.18     25.41
   19.5782    137.46    132.54    -19.02     25.41
   19.5884    139.30    132.22    -16.86     25.41
   19.5985    137.71    131.94    -18.17     25.41
   19.6087    136.10    131.68    -19.52     25.41
   19.6188    136.90    131.45    -18.49     25.41
   19.6290    137.06    131.25    -18.13     25.41
   19.6392    135.83    131.07    -19.19     25.41
   19.6493    135.12    130.92    -19.75     25.41
   19.6595    135.52    130.80    -19.22     25.41
   19.6697    134.22    130.69    -20.42     25.41
   19.6798    134.04    130.61    -20.52     25.41
   19.6900    132.80    130.55    -21.70     25.41
   19.7002    134.09    130.51    -20.36     25.41
   19.7103    134.15    130.49    -20.28     25.41
   19.7205    132.79    130.49    -21.64     25.41
   19.7307    131.34    130.50    -23.10     25.41
   19.7408    134.21    130.53    -20.26     25.41
   19.7510    132.40    130.57    -22.11     25.41
   19.7612    130.21    130.63    -24.36     25.41
   19.7713    133.02    130.70    -21.62     25.41
   19.7815    131.74    130.78    -22.98     25.41
   19.7916    131.87    130.87    -22.95     25.41
   19.8018    131.66    130.98    -23.26     25.41
   19.8120    131.52    131.09    -23.52     25.41
   19.8221    130.88    131.22    -24.28     25.41
   19.8323    131.10    131.35    -24.19     25.41
   19.8425    131.09    131.49    -24.34     25.41
   19.8526    130.82    131.64    -24.76     25.41
   19.8628    130.85    131.79    -24.88     25.41
   19.8730    128.98    131.95    -26.91     25.41
   19.8831    130.82    132.12    -25.24     25.41
   19.8933    132.58    132.29    -23.65     25.41
   19.9035    130.91    132.46    -25.49     25.41
   19.9136    130.38    132.64    -26.20     25.41
   19.9238    131.37    132.82    -25.39     25.41
   19.9339    130.56    133.00    -26.38     25.41
   19.9441    130.41    133.18    -26.72     25.41
   19.9543    131.36    133.37    -25.95     25.41
   19.9644    129.44    133.56    -28.06     25.41
   19.9746    129.58    133.75    -28.11     25.41
   19.9848    130.21    133.94    -27.67     25.42
   19.9949    131.30    134.12    -26.77     25.42
   20.0051    130.70    134.31    -27.56     25.42
   20.0153    130.30    134.50    -28.14     25.42
   20.0254    130.53    134.69    -28.10     25.42
   20.0356    131.59    134.87    -27.22     25.42
   20.0458    130.07    135.06    -28.93     25.42
   20.0559    129.98    135.24    -29.20     25.42
   20.0661    131.17    135.42    -28.19     25.42
   20.0763    130.27    135.59    -29.26     25.42
   20.0864    131.60    135.76    -28.11     25.42
   20.0966    129.96    135.93    -29.92     25.42
   20.1067    133.16    136.10    -26.88     25.42
   20.1169    131.99    136.26    -28.21     25.42
   20.1271    131.97    136.42    -28.39     25.42
   20.1372    131.40    136.57    -29.12     25.42
   20.1474    132.71    136.72    -27.96     25.42
   20.1576    131.59    136.87    -29.22     25.42
   20.1677    132.22    137.01    -28.73     25.42
   20.1779    132.56    137.15    -28.53     25.42
   20.1881    129.34    137.28    -31.88     25.42
   20.1982    132.84    137.40    -28.50     25.42
   20.2084    132.85    137.52    -28.61     25.42
   20.2186    132.76    137.63    -28.81     25.42
   20.2287    133.57    137.74    -28.11     25.42
   20.2389    134.07    137.84    -27.71     25.42
   20.2490    131.15    137.93    -30.73     25.42
   20.2592    133.84    138.02    -28.12     25.42
   20.2694    133.26    138.10    -28.79     25.42
   20.2795    133.75    138.18    -28.37     25.42
   20.2897    134.34    138.25    -27.85     25.42
   20.2999    133.66    138.31    -28.59     25.42
   20.3100    134.63    138.36    -27.68     25.42
   20.3202    134.95    138.41    -27.40     25.42
   20.3304    136.23    138.45    -26.17     25.42
   20.3405    134.43    138.49    -28.00     25.42
   20.3507    136.80    138.51    -25.65     25.42
   20.3609    135.91    138.53    -26.56     25.42
   20.3710    135.57    138.54    -26.91     25.42
   20.3812    136.61    138.54    -25.88     25.42
   20.3914    137.37    138.54    -25.11     25.42
   20.4015    134.76    138.53    -27.71     25.42
   20.4117    137.98    138.51    -24.47     25.42
   20.4218    138.01    138.48    -24.41     25.42
   20.4320    136.91    138.45    -25.48     25.42
   20.4422    137.26    138.40    -25.09     25.43
   20.4523    138.85    138.35    -23.45     25.43
   20.4625    137.52    138.30    -24.72     25.43
   20.4727    137.95    138.23    -24.22     25.43
   20.4828    138.69    138.16    -23.41     25.43
   20.4930    137.34    138.07    -24.68     25.43
   20.5032    139.91    137.98    -22.02     25.43
   20.5133    138.02    137.89    -23.81     25.43
   20.5235    137.34    137.78    -24.38     25.43
   20.5337    139.70    137.67    -21.91     25.43
   20.5438    141.09    137.55    -20.40     25.43
   20.5540    138.62    137.42    -22.74     25.43
   20.5641    139.40    137.29    -21.83     25.43
   20.5743    140.57    137.14    -20.51     25.43
   20.5845    138.21    136.99    -22.72     25.43
   20.5946    140.82    136.84    -19.96     25.43
   20.6048    141.07    136.67    -19.54     25.43
   20.6150    138.84    136.50    -21.60     25.43
   20.6251    141.74    136.32    -18.52     25.43
   20.6353    139.28    136.13    -20.80     25.43
   20.6455    139.48    135.94    -20.40     25.43
   20.6556    140.71    135.74    -18.97     25.43
   20.6658    140.45    135.54    -19.03     25.43
   20.6760    140.10    135.32    -19.16     25.43
   20.6861    141.40    135.11    -17.65     25.43
   20.6963    141.96    134.88    -16.86     25.43
   20.7065    137.97    134.65    -20.62     25.43
   20.7166    139.46    134.41    -18.89     25.43
   20.7268    139.06    134.17    -19.05     25.43
   20.7369    136.87    133.92    -21.00     25.43
   20.7471    138.20    133.67    -19.41     25.43
   20.7573    138.85    133.41    -18.50     25.43
   20.7674    137.41    133.15    -19.68     25.43
   20.7776    137.28    132.88    -19.54     25.43
   20.7878    136.10    132.61    -20.45     25.43
   20.7979    135.88    132.33    -20.39     25.43
   20.8081    136.31    132.05    -19.68     25.43
   20.8183    136.55    131.77    -19.16     25.43
   20.8284    134.74    131.48    -20.68     25.43
   20.8386    135.23    131.19    -19.90     25.43
   20.8488    134.96    130.89    -19.87     25.43
   20.8589    134.07    130.59    -20.47     25.43
   20.8691    135.45    130.29    -18.78     25.43
   20.8792    133.49    129.99    -20.44     25.43
   20.8894    131.71    129.68    -21.92     25.43
   20.8996    132.07    129.38    -21.25     25.44
   20.9097    130.47    129.07    -22.54     25.44
   20.9199    131.51    128.76    -21.19     25.44
   20.9301    131.90    128.44    -20.49     25.44
   20.9402    131.29    128.13    -20.78     25.44
   20.9504    130.60    127.82    -21.16     25.44
   20.9606    130.55    127.50    -20.90     25.44
   20.9707    129.30    127.19    -21.83     25.44
   20.9809    129.30    126.88    -21.52     25.44
   20.9911    128.65    126.56    -21.86     25.44
   21.0012    127.73    126.25    -22.46     25.44
   21.0114    128.23    125.94    -21.65     25.44
   21.0216    128.62    125.63    -20.95     25.44
   21.0317    126.70    125.32    -22.57     25.44
   21.0419    124.23    125.02    -24.73     25.44
   21.0520    127.18    124.71    -21.48     25.44
   21.0622    125.20    124.41    -23.15     25.44
   21.0724    125.02    124.11    -23.04     25.44
   21.0825    126.13    123.82    -21.63     25.44
   21.0927    123.82    123.53    -23.65     25.44
   21.1029    123.99    123.24    -23.19     25.44
   21.1130    124.68    122.96    -22.22     25.44
   21.1232    122.55    122.68    -24.07     25.44
   21.1334    121.41    122.40    -24.93     25.44
   21.1435    121.46    122.13    -24.61     25.44
   21.1537    121.33    121.87    -24.48     25.44
   21.1639    121.28    121.61    -24.27     25.44
   21.1740    120.88    121.36    -24.42     25.44
   21.1842    121.35    121.11    -23.70     25.44
   21.1943    120.10    120.87    -24.71     25.44
   21.2045    119.40    120.64    -25.18     25.44
   21.2147    119.53    120.41    -24.82     25.44
   21.2248    117.45    120.19    -26.68     25.44
   21.2350    118.62    119.98    -25.30     25.44
   21.2452    118.88    119.77    -24.84     25.44
   21.2553    116.86    119.58    -26.66     25.44
   21.2655    117.99    119.39    -25.34     25.44
   21.2757    119.13    119.21    -24.02     25.44
   21.2858    116.87    119.04    -26.12     25.44
   21.2960    118.53    118.88    -24.30     25.44
   21.3062    117.23    118.73    -25.44     25.44
   21.3163    115.12    118.59    -27.41     25.44
   21.3265    116.70    118.46    -25.70     25.44
   21.3366    116.82    118.34    -25.46     25.44
   21.3468    114.60    118.23    -27.57     25.44
   21.3570    116.16    118.13    -25.91     25.45
   21.3671    116.33    118.04    -25.65     25.45
   21.3773    115.10    117.96    -26.80     25.45
   21.3875    116.54    117.89    -25.30     25.45
   21.3976    116.63    117.84    -25.15     25.45
   21.4078    114.48    117.79    -27.26     25.45
   21.4180    115.17    117.76    -26.53     25.45
   21.4281    115.85    117.74    -25.83     25.45
   21.4383    114.79    117.73    -26.88     25.45
   21.4485    117.76    117.74    -23.92     25.45
   21.4586    116.22    117.75    -25.47     25.45
   21.4688    115.35    117.78    -26.37     25.45
   21.4790    116.21    117.82    -25.55     25.45
   21.4891    115.38    117.87    -26.43     25.45
   21.4993    114.84    117.94    -27.04     25.45
   21.5094    116.43    118.02    -25.53     25.45
   21.5196    116.67    118.11    -25.38     25.45
   21.5298    113.68    118.21    -28.47     25.45
   21.5399    116.51    118.33    -25.76     25.45
   21.5501    115.65    118.46    -26.75     25.45
   21.5603    114.19    118.60    -28.35     25.45
   21.5704    117.12    118.76    -25.58     25.45
   21.5806    116.40    118.93    -26.47     25.45
   21.5908    118.85    119.11    -24.20     25.45
   21.6009    117.91    119.30    -25.33     25.45
   21.6111    118.43    119.51    -25.02     25.45
   21.6213    116.38    119.73    -27.29     25.45
   21.6314    117.77    119.96    -26.13     25.45
   21.6416    118.78    120.20    -25.37     25.45
   21.6517    117.52    120.46    -26.88     25.45
   21.6619    116.99    120.73    -27.68     25.45
   21.6721    119.48    121.01    -25.48     25.45
   21.6822    119.09    121.31    -26.16     25.45
   21.6924    119.13    121.61    -26.42     25.45
   21.7026    121.38    121.93    -24.49     25.45
   21.7127    119.35    122.26    -26.85     25.45
   21.7229    122.87    122.60    -23.67     25.45
   21.7331    121.79    122.95    -25.10     25.45
   21.7432    121.79    123.31    -25.46     25.45
   21.7534    120.98    123.68    -26.65     25.45
   21.7636    123.84    124.07    -24.17     25.45
   21.7737    123.05    124.46    -25.35     25.45
   21.7839    124.71    124.86    -24.09     25.45
   21.7941    123.87    125.28    -25.35     25.45
   21.8042    123.84    125.70    -25.80     25.45
   21.8144    124.18    126.13    -25.89     25.46
   21.8245    128.43    126.56    -22.07     25.46
   21.8347    125.39    127.01    -25.56     25.46
   21.8449    128.85    127.47    -22.56     25.46
   21.8550    127.01    127.93    -24.86     25.46
   21.8652    125.79    128.40    -26.55     25.46
   21.8754    128.51    128.88    -24.31     25.46
   21.8855    129.64    129.35    -23.66     25.46
   21.8957    128.22    129.84    -25.57     25.46
   21.9059    131.09    130.34    -23.19     25.46
   21.9160    132.21    130.83    -22.57     25.46
   21.9262    128.86    131.34    -26.42     25.46
   21.9364    130.16    131.85    -25.63     25.46
   21.9465    131.18    132.35    -25.12     25.46
   21.9567    129.96    132.87    -26.85     25.46
   21.9668    131.87    133.38    -25.46     25.46
   21.9770    133.66    133.90    -24.19     25.46
   21.9872    133.98    134.43    -24.39     25.46
   21.9973    133.56    134.94    -25.33     25.46
   22.0075    134.60    135.47    -24.81     25.46
   22.0177    134.30    135.99    -25.63     25.46
   22.0278    134.95    136.51    -25.50     25.46
   22.0380    134.30    137.03    -26.67     25.46
   22.0482    136.95    137.55    -24.54     25.46
   22.0583    137.29    138.07    -24.72     25.46
   22.0685    138.95    138.58    -23.57     25.46
   22.0787    137.40    139.10    -25.64     25.46
   22.0888    140.23    139.60    -23.31     25.46
   22.0990    140.31    140.11    -23.74     25.46
   22.1092    140.88    140.61    -23.67     25.46
   22.1193    140.18    141.10    -24.86     25.46
   22.1295    144.05    141.59    -21.48     25.46
   22.1396    141.84    142.07    -24.17     25.46
   22.1498    145.69    142.55    -20.80     25.46
   22.1600    144.96    143.02    -22.00     25.46
   22.1701    143.43    143.47    -23.98     25.46
   22.1803    146.77    143.93    -21.10     25.46
   22.1905    145.82    144.37    -22.49     25.46
   22.2006    146.48    144.80    -22.26     25.46
   22.2108    146.84    145.23    -22.33     25.46
   22.2210    149.85    145.64    -19.73     25.46
   22.2311    146.85    146.04    -23.13     25.46
   22.2413    149.55    146.43    -20.82     25.46
   22.2515    149.29    146.81    -21.47     25.46
   22.2616    150.96    147.18    -20.16     25.47
   22.2718    151.60    147.53    -19.87     25.47
   22.2819    152.95    147.87    -18.86     25.47
   22.2921    152.27    148.20    -19.87     25.47
   22.3023    153.00    148.51    -19.46     25.47
   22.3124    154.89    148.81    -17.86     25.47
   22.3226    150.91    149.10    -22.13     25.47
   22.3328    152.90    149.36    -20.41     25.47
   22.3429    154.98    149.62    -18.58     25.47
   22.3531    153.30    149.85    -20.50     25.47
   22.3633    154.15    150.07    -19.87     25.47
   22.3734    157.09    150.28    -17.13     25.47
   22.3836    153.54    150.46    -20.87     25.47
   22.3938    155.24    150.63    -19.34     25.47
   22.4039    157.10    150.78    -17.63     25.47
   22.4141    154.01    150.92    -20.85     25.47
   22.4243    155.87    151.04    -19.11     25.47
   22.4344    156.22    151.13    -18.85     25.47
   22.4446    155.29    151.21    -19.86     25.47
   22.4547    156.12    151.27    -19.09     25.47
   22.4649    156.30    151.31    -18.95     25.47
   22.4751    154.62    151.33    -20.66     25.47
   22.4852    155.57    151.34    -19.71     25.47
   22.4954    156.62    151.32    -18.64     25.47
   22.5056    152.66    151.28    -22.57     25.47
   22.5157    153.98    151.23    -21.19     25.47
   22.5259    154.23    151.15    -20.86     25.47
   22.5361    153.03    151.06    -21.97     25.47
   22.5462    155.92    150.94    -18.96     25.47
   22.5564    155.04    150.81    -19.71     25.47
   22.5666    152.49    150.65    -22.10     25.47
   22.5767    153.10    150.48    -21.32     25.47
   22.5869    151.88    150.29    -22.35     25.47
   22.5970    150.60    150.07    -23.42     25.47
   22.6072    151.74    149.84    -22.04     25.47
   22.6174    153.27    149.59    -20.26     25.47
   22.6275    150.90    149.32    -22.36     25.47
   22.6377    150.81    149.02    -22.16     25.47
   22.6479    149.90    148.71    -22.75     25.47
   22.6580    148.07    148.38    -24.26     25.47
   22.6682    149.12    148.04    -22.86     25.47
   22.6784    148.02    147.67    -23.59     25.47
   22.6885    145.28    147.29    -25.95     25.47
   22.6987    147.71    146.88    -23.11     25.47
   22.7089    145.16    146.46    -25.24     25.47
   22.7190    144.48    146.02    -25.49     25.48
   22.7292    144.24    145.57    -25.27     25.48
   22.7394    147.02    145.09    -22.01     25.48
   22.7495    141.14    144.61    -27.41     25.48
   22.7597    143.54    144.10    -24.50     25.48
   22.7698    141.93    143.58    -25.59     25.48
   22.7800    139.12    143.04    -27.86     25.48
   22.7902    140.82    142.48    -25.61     25.48
   22.8003    139.68    141.92    -26.18     25.48
   22.8105    136.33    141.34    -28.95     25.48
   22.8207    136.85    140.74    -27.83     25.48
   22.8308    138.48    140.13    -25.59     25.48
   22.8410    135.99    139.50    -27.46     25.48
   22.8512    135.84    138.86    -26.97     25.48
   22.8613    135.52    138.22    -26.64     25.48
   22.8715    133.84    137.55    -27.66     25.48
   22.8817    135.02    136.88    -25.80     25.48
   22.8918    132.95    136.20    -27.19     25.48
   22.9020    130.62    135.50    -28.82     25.48
   22.9121    133.64    134.80    -25.10     25.48
   22.9223    130.37    134.08    -27.65     25.48
   22.9325    128.26    133.35    -29.03     25.48
   22.9426    129.30    132.62    -27.26     25.48
   22.9528    127.98    131.88    -27.84     25.48
   22.9630    126.49    131.12    -28.57     25.48
   22.9731    126.74    130.37    -27.57     25.48
   22.9833    126.62    129.60    -26.92     25.48
   22.9935    125.40    128.82    -27.37     25.48
   23.0036    124.13    128.05    -27.86     25.48
   23.0138    122.11    127.26    -29.10     25.48
   23.0240    122.81    126.47    -27.60     25.48
   23.0341    122.32    125.68    -27.31     25.48
   23.0443    120.04    124.88    -28.79     25.48
   23.0545    121.23    124.08    -26.79     25.48
   23.0646    119.96    123.28    -27.26     25.48
   23.0748    117.66    122.47    -28.75     25.48
   23.0849    116.17    121.66    -29.43     25.48
   23.0951    116.67    120.85    -28.12     25.48
   23.1053    115.59    120.03    -28.38     25.48
   23.1154    116.91    119.22    -26.25     25.48
   23.1256    114.08    118.40    -28.27     25.48
   23.1358    115.93    117.59    -25.60     25.48
   23.1459    115.37    116.78    -25.35     25.48
   23.1561    112.16    115.96    -27.74     25.48
   23.1663    112.05    115.14    -27.03     25.48
   23.1764    112.74    114.34    -25.54     25.49
   23.1866    112.34    113.52    -25.12     25.49
   23.1968    108.23    112.71    -28.42     25.49
   23.2069    108.79    111.91    -27.06     25.49
   23.2171    110.68    111.11    -24.37     25.49
   23.2272    107.69    110.31    -26.57     25.49
   23.2374    109.00    109.52    -24.46     25.49
   23.2476    107.09    108.72    -25.57     25.49
   23.2577    104.63    107.94    -27.25     25.49
   23.2679    107.05    107.16    -24.05     25.49
   23.2781    105.31    106.38    -25.01     25.49
   23.2882    105.90    105.61    -23.65     25.49
   23.2984    102.71    104.84    -26.07     25.49
   23.3086    104.66    104.08    -23.36     25.49
   23.3187    102.29    103.33    -24.98     25.49
   23.3289    100.68    102.58    -25.84     25.49
   23.3391    101.71    101.84    -24.07     25.49
   23.3492     99.99    101.11    -25.06     25.49
   23.3594     99.14    100.38    -25.18     25.49
   23.3695     99.37     99.66    -24.23     25.49
   23.3797    100.28     98.95    -22.61     25.49
   23.3899     97.78     98.24    -24.40     25.49
   23.4000     97.55     97.55    -23.94     25.49
   23.4102     97.88     96.86    -22.92     25.49
   23.4204     97.27     96.17    -22.85     25.49
   23.4305     96.93     95.51    -22.52     25.49
   23.4407     95.93     94.84    -22.85     25.49
   23.4509     94.56     94.18    -23.56     25.49
   23.4610     95.38     93.54    -22.10     25.49
   23.4712     94.27     92.90    -22.57     25.49
   23.4814     93.43     92.27    -22.78     25.49
   23.4915     93.42     91.65    -22.17     25.49
   23.5017     91.99     91.04    -22.99     25.49
   23.5119     92.59     90.44    -21.79     25.49
   23.5220     92.32     89.85    -21.47     25.49
   23.5322     91.81     89.26    -21.39     25.49
   23.5423     90.32     88.69    -22.31     25.49
   23.5525     90.38     88.12    -21.69     25.49
   23.5627     89.70     87.57    -21.81     25.49
   23.5728     89.24     87.02    -21.72     25.49
   23.5830     88.46     86.48    -21.97     25.49
   23.5932     88.26     85.95    -21.64     25.49
   23.6033     88.26     85.44    -21.12     25.49
   23.6135     86.57     84.93    -22.30     25.49
   23.6237     87.12     84.42    -21.25     25.49
   23.6338     86.84     83.94    -21.04     25.50
   23.6440     85.84     83.45    -21.55     25.50
   23.6542     85.95     82.98    -20.97     25.50
   23.6643     85.61     82.52    -20.85     25.50
   23.6745     85.57     82.06    -20.43     25.50
   23.6846     85.25     81.62    -20.31     25.50
   23.6948     85.39     81.18    -19.73     25.50
   23.7050     82.89     80.75    -21.80     25.50
   23.7151     82.79     80.33    -21.48     25.50
   23.7253     83.65     79.92    -20.21     25.50
   23.7355     81.45     79.51    -22.01     25.50
   23.7456     81.40     79.12    -21.66     25.50
   23.7558     82.46     78.73    -20.22     25.50
   23.7660     82.14     78.35    -20.16     25.50
   23.7761     81.05     77.99    -20.88     25.50
   23.7863     80.32     77.62    -21.25     25.50
   23.7965     81.51     77.27    -19.70     25.50
   23.8066     80.53     76.92    -20.34     25.50
   23.8168     79.40     76.58    -21.13     25.50
   23.8270     80.61     76.25    -19.58     25.50
   23.8371     78.81     75.93    -21.06     25.50
   23.8473     78.83     75.61    -20.72     25.50
   23.8574     80.32     75.30    -18.93     25.50
   23.8676     77.98     75.00    -20.96     25.50
   23.8778     78.48     74.70    -20.17     25.50
   23.8879     77.91     74.42    -20.45     25.50
   23.8981     76.11     74.13    -21.96     25.50
   23.9083     77.04     73.86    -20.76     25.50
   23.9184     76.27     73.59    -21.26     25.50
   23.9286     78.14     73.32    -19.13     25.50
   23.9388     76.02     73.07    -20.99     25.50
   23.9489     76.54     72.82    -20.22     25.50
   23.9591     75.54     72.57    -20.97     25.50
   23.9693     75.58     72.33    -20.69     25.50
   23.9794     74.63     72.10    -21.41     25.50
   23.9896     74.34     71.87    -21.47     25.50
   23.9997     72.93     71.64    -22.66     25.50
   24.0099     74.40     71.42    -20.97     25.50
   24.0201     74.54     71.21    -20.61     25.50
   24.0302     73.63     71.00    -21.31     25.50
   24.0404     73.40     70.80    -21.34     25.50
   24.0506     73.42     70.60    -21.12     25.50
   24.0607     72.38     70.40    -21.97     25.50
   24.0709     72.67     70.21    -21.49     25.50
   24.0811     71.95     70.03    -22.02     25.51
   24.0912     71.76     69.85    -22.03     25.51
   24.1014     71.31     69.67    -22.30     25.51
   24.1116     71.80     69.49    -21.64     25.51
   24.1217     71.21     69.32    -22.06     25.51
   24.1319     70.64     69.16    -22.46     25.51
   24.1421     70.95     68.99    -21.99     25.51
   24.1522     70.68     68.84    -22.10     25.51
   24.1624     69.80     68.68    -22.82     25.51
   24.1725     69.77     68.53    -22.70     25.51
   24.1827     71.98     68.38    -20.34     25.51
   24.1929     70.10     68.23    -22.07     25.51
   24.2030     69.40     68.09    -22.63     25.51
   24.2132     69.87     67.95    -22.02     25.51
   24.2234     69.04     67.81    -22.71     25.51
   24.2335     68.76     67.68    -22.86     25.51
   24.2437     68.26     67.54    -23.22     25.51
   24.2539     68.55     67.41    -22.80     25.51
   24.2640     68.22     67.28    -23.01     25.51
   24.2742     67.90     67.16    -23.20     25.51
   24.2844     67.66     67.04    -23.32     25.51
   24.2945     67.94     66.92    -22.92     25.51
   24.3047     67.68     66.80    -23.06     25.51
   24.3148     66.36     66.68    -24.26     25.51
   24.3250     68.77     66.56    -21.74     25.51
   24.3352     65.99     66.45    -24.40     25.51
   24.3453     67.08     66.34    -23.20     25.51
   24.3555     67.38     66.23    -22.79     25.51
   24.3657     67.23     66.12    -22.83     25.51
   24.3758     65.75     66.02    -24.21     25.51
   24.3860     66.59     65.91    -23.26     25.51
   24.3962     65.68     65.81    -24.07     25.51
   24.4063     66.11     65.71    -23.54     25.51
   24.4165     65.54     65.61    -24.01     25.51
   24.4267     65.91     65.51    -23.54     25.51
   24.4368     66.35     65.41    -23.00     25.51
   24.4470     65.43     65.31    -23.82     25.51
   24.4572     64.26     65.21    -24.90     25.51
   24.4673     65.72     65.12    -23.34     25.51
   24.4775     64.28     65.03    -24.69     25.51
   24.4876     64.46     64.93    -24.42     25.51
   24.4978     64.87     64.84    -23.91     25.51
   24.5080     64.70     64.75    -23.99     25.51
   24.5181     65.13     64.66    -23.47     25.51
   24.5283     64.62     64.57    -23.90     25.51
   24.5385     63.25     64.48    -25.18     25.52
   24.5486     64.09     64.40    -24.25     25.52
   24.5588     63.87     64.31    -24.38     25.52
   24.5690     64.35     64.22    -23.82     25.52
   24.5791     62.93     64.14    -25.15     25.52
   24.5893     63.76     64.05    -24.24     25.52
   24.5995     63.73     63.97    -24.18     25.52
   24.6096     61.68     63.89    -26.15     25.52
   24.6198     63.29     63.80    -24.46     25.52
   24.6299     62.41     63.72    -25.25     25.52
   24.6401     61.97     63.64    -25.61     25.52
   24.6503     61.79     63.56    -25.71     25.52
   24.6604     63.70     63.48    -23.72     25.52
   24.6706     61.21     63.40    -26.13     25.52
   24.6808     61.97     63.32    -25.29     25.52
   24.6909     62.02     63.24    -25.16     25.52
   24.7011     61.86     63.16    -25.24     25.52
   24.7113     62.56     63.08    -24.46     25.52
   24.7214     61.50     63.00    -25.44     25.52
   24.7316     62.11     62.92    -24.75     25.52
   24.7418     61.62     62.84    -25.16     25.52
   24.7519     60.90     62.76    -25.80     25.52
   24.7621     61.19     62.68    -25.44     25.52
   24.7723     61.65     62.61    -24.90     25.52
   24.7824     60.90     62.53    -25.57     25.52
   24.7926     61.97     62.45    -24.43     25.52
   24.8027     60.68     62.38    -25.64     25.52
   24.8129     59.91     62.30    -26.33     25.52
   24.8231     61.65     62.22    -24.52     25.52
   24.8332     60.78     62.15    -25.31     25.52
   24.8434     61.12     62.07    -24.89     25.52
   24.8536     60.17     62.00    -25.77     25.52
   24.8637     60.00     61.92    -25.86     25.52
   24.8739     60.75     61.84    -25.04     25.52
   24.8841     60.23     61.77    -25.48     25.52
   24.8942     60.62     61.69    -25.02     25.52
   24.9044     59.67     61.62    -25.89     25.52
   24.9146     60.68     61.54    -24.80     25.52
   24.9247     59.78     61.47    -25.63     25.52
   24.9349     59.84     61.39    -25.49     25.52
   24.9450     58.93     61.32    -26.33     25.52
   24.9552     60.92     61.24    -24.27     25.52
   24.9654     58.35     61.17    -26.76     25.52
   24.9755     60.05     61.09    -24.99     25.52
   24.9857     59.61     61.02    -25.35     25.52
   24.9959     59.01     60.95    -25.88     25.53
   25.0060     59.13     60.87    -25.68     25.53
   25.0162     58.71     60.80    -26.03     25.53
   25.0264     58.70     60.72    -25.96     25.53
   25.0365     59.60     60.65    -24.99     25.53
   25.0467     59.79     60.57    -24.73     25.53
   25.0569     58.84     60.50    -25.60     25.53
   25.0670     58.31     60.43    -26.06     25.53
   25.0772     59.91     60.35    -24.38     25.53
   25.0874     58.45     60.28    -25.77     25.53
   25.0975     58.24     60.21    -25.91     25.53
   25.1077     58.94     60.13    -25.13     25.53
   25.1178     58.16     60.06    -25.84     25.53
   25.1280     59.41     59.98    -24.52     25.53
   25.1382     59.49     59.91    -24.36     25.53
   25.1483     58.11     59.84    -25.67     25.53
   25.1585     57.56     59.76    -26.15     25.53
   25.1687     58.60     59.69    -25.03     25.53
   25.1788     58.16     59.62    -25.40     25.53
   25.1890     57.21     59.54    -26.27     25.53
   25.1992     58.29     59.47    -25.12     25.53
   25.2093     58.43     59.40    -24.91     25.53
   25.2195     58.23     59.32    -25.03     25.53
   25.2297     59.57     59.25    -23.62     25.53
   25.2398     58.60     59.18    -24.52     25.53
   25.2500     57.30     59.10    -25.74     25.53
   25.2601     57.58     59.03    -25.39     25.53
   25.2703     57.32     58.96    -25.58     25.53
   25.2805     56.52     58.88    -26.30     25.53
   25.2906     56.90     58.81    -25.85     25.53
   25.3008     57.02     58.74    -25.66     25.53
   25.3110     56.74     58.66    -25.87     25.53
   25.3211     57.06     58.59    -25.47     25.53
   25.3313     56.88     58.52    -25.58     25.53
   25.3415     56.16     58.44    -26.23     25.53
   25.3516     56.38     58.37    -25.93     25.53
   25.3618     57.26     58.30    -24.98     25.53
   25.3720     57.18     58.23    -24.99     25.53
   25.3821     56.15     58.15    -25.94     25.53
   25.3923     56.46     58.08    -25.56     25.53
   25.4024     57.39     58.01    -24.56     25.53
   25.4126     56.70     57.93    -25.18     25.53
   25.4228     57.30     57.86    -24.50     25.53
   25.4329     57.39     57.79    -24.34     25.53
   25.4431     56.62     57.72    -25.04     25.53
   25.4533     57.29     57.64    -24.29     25.54
   25.4634     56.34     57.57    -25.17     25.54
   25.4736     56.66     57.50    -24.78     25.54
   25.4838     56.53     57.42    -24.84     25.54
   25.4939     56.60     57.35    -24.69     25.54
   25.5041     56.23     57.28    -24.99     25.54
   25.5143     57.24     57.21    -23.91     25.54
   25.5244     55.41     57.13    -25.67     25.54
   25.5346     55.54     57.06    -25.46     25.54
   25.5448     55.46     56.99    -25.47     25.54
   25.5549     56.04     56.92    -24.82     25.54
   25.5651     55.02     56.84    -25.77     25.54
   25.5752     55.48     56.77    -25.24     25.54
   25.5854     54.41     56.70    -26.23     25.54
   25.5956     56.07     56.63    -24.50     25.54
   25.6057     55.35     56.56    -25.15     25.54
   25.6159     54.57     56.48    -25.86     25.54
   25.6261     55.41     56.41    -24.94     25.54
   25.6362     56.65     56.34    -23.63     25.54
   25.6464     54.98     56.27    -25.23     25.54
   25.6566     55.38     56.19    -24.76     25.54
   25.6667     53.74     56.12    -26.33     25.54
   25.6769     55.90     56.05    -24.09     25.54
   25.6871     55.06     55.98    -24.86     25.54
   25.6972     55.28     55.91    -24.57     25.54
   25.7074     55.10     55.84    -24.68     25.54
   25.7175     53.66     55.76    -26.05     25.54
   25.7277     54.93     55.69    -24.70     25.54
   25.7379     55.02     55.62    -24.54     25.54
   25.7480     54.17     55.55    -25.32     25.54
   25.7582     54.25     55.48    -25.17     25.54
   25.7684     55.16     55.41    -24.19     25.54
   25.7785     54.68     55.33    -24.60     25.54
   25.7887     54.75     55.26    -24.45     25.54
   25.7989     53.95     55.19    -25.18     25.54
   25.8090     55.10     55.12    -23.96     25.54
   25.8192     54.10     55.05    -24.89     25.54
   25.8294     53.31     54.98    -25.61     25.54
   25.8395     53.14     54.91    -25.71     25.54
   25.8497     54.05     54.83    -24.73     25.54
   25.8599     54.18     54.76    -24.52     25.54
   25.8700     53.38     54.69    -25.25     25.54
   25.8802     53.99     54.62    -24.57     25.54
   25.8903     53.41     54.55    -25.08     25.54
   25.9005     54.51     54.48    -23.91     25.55
   25.9107     54.20     54.41    -24.15     25.55
   25.9208     53.79     54.34    -24.49     25.55
   25.9310     54.00     54.27    -24.21     25.55
   25.9412     53.84     54.20    -24.30     25.55
   25.9513     53.12     54.12    -24.95     25.55
   25.9615     52.66     54.05    -25.34     25.55
   25.9717     53.02     53.98    -24.91     25.55
   25.9818     52.98     53.91    -24.87     25.55
   25.9920     54.21     53.84    -23.57     25.55
   26.0022     53.90     53.77    -23.81     25.55
   26.0123     54.27     53.70    -23.37     25.55
   26.0225     52.71     53.63    -24.86     25.55
   26.0326     53.00     53.56    -24.50     25.55
   26.0428     53.27     53.49    -24.16     25.55
   26.0530     53.05     53.42    -24.31     25.55
   26.0631     54.02     53.35    -23.27     25.55
   26.0733     51.49     53.28    -25.73     25.55
   26.0835     51.99     53.21    -25.16     25.55
   26.0936     52.59     53.14    -24.49     25.55
   26.1038     52.60     53.07    -24.41     25.55
   26.1140     52.53     53.00    -24.41     25.55
   26.1241     53.19     52.93    -23.68     25.55
   26.1343     51.42     52.86    -25.38     25.55
   26.1445     52.29     52.79    -24.44     25.55
   26.1546     51.87     52.72    -24.80     25.55
   26.1648     52.96     52.65    -23.64     25.55
   26.1750     51.96     52.58    -24.57     25.55
   26.1851     52.49     52.52    -23.97     25.55
   26.1953     51.90     52.45    -24.49     25.55
   26.2054     50.43     52.38    -25.89     25.55
   26.2156     51.73     52.31    -24.52     25.55
   26.2258     52.46     52.24    -23.72     25.55
   26.2359     52.30     52.17    -23.81     25.55
   26.2461     51.99     52.10    -24.05     25.55
   26.2563     50.71     52.03    -25.26     25.55
   26.2664     51.04     51.96    -24.87     25.55
   26.2766     51.45     51.90    -24.39     25.55
   26.2868     50.37     51.83    -25.40     25.55
   26.2969     51.20     51.76    -24.50     25.55
   26.3071     51.61     51.69    -24.02     25.55
   26.3173     51.46     51.62    -24.10     25.55
   26.3274     51.32     51.56    -24.18     25.55
   26.3376     50.74     51.49    -24.69     25.55
   26.3477     52.19     51.42    -23.17     25.55
   26.3579     51.36     51.35    -23.93     25.56
   26.3681     51.71     51.28    -23.52     25.56
   26.3782     51.53     51.22    -23.63     25.56
   26.3884     51.53     51.15    -23.56     25.56
   26.3986     50.66     51.08    -24.36     25.56
   26.4087     51.27     51.02    -23.69     25.56
   26.4189     51.42     50.95    -23.47     25.56
   26.4291     50.77     50.88    -24.05     25.56
   26.4392     50.55     50.82    -24.21     25.56
   26.4494     51.39     50.75    -23.30     25.56
   26.4596     51.85     50.68    -22.78     25.56
   26.4697     50.91     50.62    -23.65     25.56
   26.4799     49.60     50.55    -24.89     25.56
   26.4901     51.47     50.49    -22.96     25.56
   26.5002     50.58     50.42    -23.78     25.56
   26.5104     51.15     50.35    -23.15     25.56
   26.5205     50.50     50.29    -23.73     25.56
   26.5307     50.29     50.23    -23.88     25.56
   26.5409     51.16     50.16    -22.94     25.56
   26.5510     50.36     50.10    -23.68     25.56
   26.5612     49.77     50.03    -24.20     25.56
   26.5714     50.34     49.97    -23.57     25.56
   26.5815     49.76     49.90    -24.09     25.56
   26.5917     50.54     49.84    -23.24     25.56
   26.6019     49.91     49.78    -23.81     25.56
   26.6120     51.06     49.71    -22.60     25.56
   26.6222     49.87     49.65    -23.72     25.56
   26.6324     49.91     49.59    -23.62     25.56
   26.6425     49.48     49.53    -23.99     25.56
   26.6527     50.43     49.47    -22.98     25.56
   26.6628     49.77     49.41    -23.58     25.56
   26.6730     50.01     49.34    -23.28     25.56
   26.6832     49.38     49.28    -23.85     25.56
   26.6933     49.55     49.22    -23.62     25.56
   26.7035     49.13     49.16    -23.98     25.56
   26.7137     49.29     49.10    -23.76     25.56
   26.7238     49.21     49.05    -23.78     25.56
   26.7340     49.20     48.99    -23.73     25.56
   26.7442     49.87     48.93    -23.00     25.56
   26.7543     49.32     48.87    -23.49     25.56
   26.7645     49.66     48.82    -23.10     25.56
   26.7747     49.77     48.76    -22.93     25.56
   26.7848     49.54     48.70    -23.11     25.56
   26.7950     48.87     48.65    -23.72     25.56
   26.8052     49.93     48.59    -22.61     25.56
   26.8153     49.41     48.54    -23.07     25.57
   26.8255     49.41     48.49    -23.02     25.57
   26.8356     49.41     48.44    -22.97     25.57
   26.8458     49.17     48.38    -23.16     25.57
   26.8560     50.05     48.33    -22.22     25.57
   26.8661     48.58     48.28    -23.64     25.57
   26.8763     48.46     48.23    -23.72     25.57
   26.8865     48.77     48.18    -23.36     25.57
   26.8966     48.86     48.14    -23.22     25.57
   26.9068     49.85     48.09    -22.18     25.57
   26.9170     48.76     48.05    -23.23     25.57
   26.9271     50.18     48.00    -21.76     25.57
   26.9373     49.51     47.96    -22.39     25.57
   26.9475     49.48     47.91    -22.38     25.57
   26.9576     49.68     47.87    -22.14     25.57
   26.9678     49.45     47.83    -22.32     25.57
   26.9779     49.62     47.79    -22.12     25.57
   26.9881     49.01     47.76    -22.69     25.57
   26.9983     48.68     47.72    -22.98     25.57
   27.0084     48.87     47.68    -22.76     25.57
   27.0186     48.80     47.65    -22.79     25.57
   27.0288     49.04     47.62    -22.52     25.57
   27.0389     48.62     47.59    -22.91     25.57
   27.0491     49.10     47.56    -22.40     25.57
   27.0593     48.85     47.53    -22.62     25.57
   27.0694     49.54     47.50    -21.91     25.57
   27.0796     49.33     47.48    -22.09     25.57
   27.0898     49.70     47.46    -21.70     25.57
   27.0999     48.98     47.43    -22.40     25.57
   27.1101     49.13     47.42    -22.23     25.57
   27.1202     48.81     47.40    -22.53     25.57
   27.1304     49.29     47.38    -22.03     25.57
   27.1406     48.62     47.37    -22.69     25.57
   27.1507     48.43     47.36    -22.87     25.57
   27.1609     48.58     47.35    -22.71     25.57
   27.1711     48.45     47.34    -22.83     25.57
   27.1812     49.62     47.34    -21.66     25.57
   27.1914     48.59     47.33    -22.69     25.57
   27.2016     48.60     47.33    -22.68     25.57
   27.2117     48.74     47.34    -22.54     25.57
   27.2219     48.26     47.34    -23.02     25.57
   27.2321     47.67     47.35    -23.62     25.57
   27.2422     47.84     47.36    -23.46     25.57
   27.2524     48.34     47.37    -22.97     25.57
   27.2626     48.29     47.38    -23.04     25.57
   27.2727     48.76     47.40    -22.58     25.58
   27.2829     48.38     47.42    -22.99     25.58
   27.2930     49.17     47.45    -22.22     25.58
   27.3032     48.10     47.47    -23.32     25.58
   27.3134     48.59     47.50    -22.86     25.58
   27.3235     47.75     47.54    -23.73     25.58
   27.3337     48.34     47.57    -23.17     25.58
   27.3439     48.03     47.61    -23.52     25.58
   27.3540     48.45     47.65    -23.14     25.58
   27.3642     48.45     47.70    -23.19     25.58
   27.3744     48.61     47.75    -23.08     25.58
   27.3845     49.15     47.80    -22.59     25.58
   27.3947     48.35     47.86    -23.45     25.58
   27.4049     48.13     47.92    -23.73     25.58
   27.4150     49.33     47.98    -22.59     25.58
   27.4252     47.53     48.04    -24.46     25.58
   27.4353     49.04     48.11    -23.02     25.58
   27.4455     49.16     48.19    -22.97     25.58
   27.4557     48.62     48.27    -23.59     25.58
   27.4658     48.51     48.35    -23.78     25.58
   27.4760     48.79     48.43    -23.58     25.58
   27.4862     48.91     48.52    -23.55     25.58
   27.4963     49.46     48.61    -23.09     25.58
   27.5065     49.60     48.71    -23.05     25.58
   27.5167     48.66     48.81    -24.09     25.58
   27.5268     48.90     48.91    -23.96     25.58
   27.5370     49.15     49.02    -23.82     25.58
   27.5472     49.07     49.14    -24.01     25.58
   27.5573     49.15     49.25    -24.04     25.58
   27.5675     47.91     49.37    -25.40     25.58
   27.5777     50.33     49.50    -23.11     25.58
   27.5878     48.91     49.62    -24.66     25.58
   27.5980     49.47     49.76    -24.23     25.58
   27.6081     49.46     49.89    -24.37     25.58
   27.6183     49.86     50.03    -24.11     25.58
   27.6285     48.91     50.18    -25.21     25.58
   27.6386     50.24     50.32    -24.02     25.58
   27.6488     49.54     50.47    -24.88     25.58
   27.6590     49.46     50.63    -25.11     25.58
   27.6691     49.26     50.79    -25.47     25.58
   27.6793     49.68     50.95    -25.21     25.58
   27.6895     50.29     51.12    -24.77     25.58
   27.6996     48.97     51.29    -26.26     25.58
   27.7098     49.96     51.46    -25.44     25.58
   27.7200     50.35     51.64    -25.23     25.59
   27.7301     50.14     51.82    -25.62     25.59
   27.7403     50.80     52.00    -25.15     25.59
   27.7504     50.51     52.19    -25.62     25.59
   27.7606     51.49     52.38    -24.83     25.59
   27.7708     51.17     52.58    -25.35     25.59
   27.7809     51.38     52.77    -25.33     25.59
   27.7911     51.63     52.97    -25.28     25.59
   27.8013     50.70     53.17    -26.42     25.59
   27.8114     50.74     53.38    -26.58     25.59
   27.8216     50.77     53.59    -26.76     25.59
   27.8318     51.88     53.80    -25.86     25.59
   27.8419     52.36     54.01    -25.59     25.59
   27.8521     51.79     54.22    -26.37     25.59
   27.8623     52.52     54.44    -25.86     25.59
   27.8724     53.24     54.65    -25.36     25.59
   27.8826     53.37     54.87    -25.45     25.59
   27.8928     54.33     55.10    -24.71     25.59
   27.9029     53.43     55.32    -25.83     25.59
   27.9131     53.46     55.54    -26.02     25.59
   27.9232     53.92     55.77    -25.79     25.59
   27.9334     53.79     55.99    -26.14     25.59
   27.9436     53.01     56.22    -27.15     25.59
   27.9537     54.79     56.45    -25.60     25.59
   27.9639     52.98     56.67    -27.64     25.59
   27.9741     53.13     56.90    -27.71     25.59
   27.9842     55.13     57.13    -25.94     25.59
   27.9944     53.59     57.36    -27.71     25.59
   28.0046     55.45     57.58    -26.08     25.59
   28.0147     54.76     57.81    -26.99     25.59
   28.0249     55.40     58.03    -26.58     25.59
   28.0351     54.51     58.26    -27.69     25.59
   28.0452     55.35     58.48    -27.07     25.59
   28.0554     56.79     58.70    -25.86     25.59
   28.0655     56.34     58.92    -26.52     25.59
   28.0757     57.19     59.14    -25.89     25.59
   28.0859     55.88     59.36    -27.42     25.59
   28.0960     56.54     59.57    -26.97     25.59
   28.1062     57.18     59.78    -26.55     25.59
   28.1164     56.70     59.99    -27.24     25.59
   28.1265     57.08     60.20    -27.06     25.59
   28.1367     57.80     60.40    -26.54     25.59
   28.1469     57.93     60.60    -26.61     25.59
   28.1570     58.45     60.80    -26.29     25.59
   28.1672     59.38     60.99    -25.55     25.59
   28.1774     59.80     61.18    -25.32     25.60
   28.1875     59.08     61.36    -26.22     25.60
   28.1977     61.04     61.54    -24.45     25.60
   28.2079     60.41     61.72    -25.25     25.60
   28.2180     59.87     61.89    -25.96     25.60
   28.2282     60.85     62.06    -25.15     25.60
   28.2383     60.01     62.22    -26.15     25.60
   28.2485     58.68     62.37    -27.63     25.60
   28.2587     60.79     62.52    -25.68     25.60
   28.2688     61.24     62.67    -25.37     25.60
   28.2790     61.83     62.81    -24.92     25.60
   28.2892     61.42     62.94    -25.46     25.60
   28.2993     62.03     63.07    -24.98     25.60
   28.3095     62.37     63.19    -24.76     25.60
   28.3197     62.23     63.31    -25.02     25.60
   28.3298     62.44     63.41    -24.92     25.60
   28.3400     63.86     63.52    -23.60     25.60
   28.3502     63.38     63.61    -24.17     25.60
   28.3603     63.95     63.70    -23.69     25.60
   28.3705     62.84     63.78    -24.89     25.60
   28.3806     64.33     63.86    -23.47     25.60
   28.3908     63.99     63.93    -23.88     25.60
   28.4010     63.77     63.99    -24.16     25.60
   28.4111     64.88     64.04    -23.10     25.60
   28.4213     65.23     64.09    -22.80     25.60
   28.4315     64.49     64.13    -23.58     25.60
   28.4416     64.35     64.16    -23.75     25.60
   28.4518     66.46     64.18    -21.67     25.60
   28.4620     64.75     64.20    -23.39     25.60
   28.4721     65.02     64.21    -23.13     25.60
   28.4823     64.51     64.21    -23.65     25.60
   28.4925     66.04     64.21    -22.11     25.60
   28.5026     64.41     64.20    -23.73     25.60
   28.5128     66.79     64.18    -21.33     25.60
   28.5230     65.30     64.15    -22.79     25.60
   28.5331     64.82     64.12    -23.24     25.60
   28.5433     65.83     64.07    -22.19     25.60
   28.5534     65.46     64.02    -22.51     25.60
   28.5636     65.63     63.97    -22.28     25.60
   28.5738     65.21     63.90    -22.64     25.60
   28.5839     65.17     63.83    -22.61     25.60
   28.5941     64.90     63.76    -22.80     25.60
   28.6043     64.10     63.67    -23.51     25.60
   28.6144     65.99     63.58    -21.53     25.60
   28.6246     64.13     63.48    -23.30     25.60
   28.6348     65.23     63.38    -22.09     25.61
   28.6449     64.72     63.27    -22.49     25.61
   28.6551     64.58     63.15    -22.51     25.61
   28.6653     65.18     63.03    -21.79     25.61
   28.6754     64.50     62.90    -22.34     25.61
   28.6856     63.77     62.76    -22.94     25.61
   28.6957     63.48     62.62    -23.09     25.61
   28.7059     65.22     62.48    -21.20     25.61
   28.7161     64.15     62.32    -22.12     25.61
   28.7262     64.10     62.17    -22.01     25.61
   28.7364     62.77     62.00    -23.18     25.61
   28.7466     64.31     61.84    -21.47     25.61
   28.7567     64.50     61.66    -21.11     25.61
   28.7669     62.99     61.49    -22.44     25.61
   28.7771     63.60     61.31    -21.65     25.61
   28.7872     63.37     61.12    -21.69     25.61
   28.7974     62.48     60.93    -22.39     25.61
   28.8076     62.15     60.74    -22.53     25.61
   28.8177     62.73     60.54    -21.75     25.61
   28.8279     62.16     60.34    -22.12     25.61
   28.8381     62.51     60.14    -21.57     25.61
   28.8482     62.09     59.93    -21.78     25.61
   28.8584     61.12     59.72    -22.54     25.61
   28.8685     61.20     59.51    -22.25     25.61
   28.8787     61.21     59.29    -22.02     25.61
   28.8889     61.18     59.07    -21.84     25.61
   28.8990     59.75     58.86    -23.05     25.61
   28.9092     59.16     58.64    -23.42     25.61
   28.9194     60.01     58.41    -22.34     25.61
   28.9295     60.00     58.19    -22.13     25.61
   28.9397     59.96     57.96    -21.94     25.61
   28.9499     59.56     57.74    -22.12     25.61
   28.9600     59.01     57.51    -22.44     25.61
   28.9702     58.93     57.28    -22.29     25.61
   28.9804     57.53     57.05    -23.46     25.61
   28.9905     58.20     56.82    -22.57     25.61
   29.0007     59.45     56.59    -21.09     25.61
   29.0108     58.17     56.37    -22.14     25.61
   29.0210     57.20     56.14    -22.88     25.61
   29.0312     57.44     55.91    -22.41     25.61
   29.0413     55.52     55.68    -24.10     25.61
   29.0515     57.20     55.45    -22.20     25.61
   29.0617     57.40     55.23    -21.77     25.61
   29.0718     56.69     55.00    -22.25     25.61
   29.0820     57.83     54.78    -20.89     25.61
   29.0922     55.20     54.55    -23.30     25.62
   29.1023     55.10     54.33    -23.18     25.62
   29.1125     55.30     54.11    -22.76     25.62
   29.1227     55.71     53.89    -22.13     25.62
   29.1328     55.08     53.68    -22.54     25.62
   29.1430     54.78     53.46    -22.63     25.62
   29.1531     54.93     53.25    -22.27     25.62
   29.1633     53.52     53.04    -23.46     25.62
   29.1735     53.40     52.83    -23.38     25.62
   29.1836     54.71     52.63    -21.86     25.62
   29.1938     52.80     52.42    -23.57     25.62
   29.2040     54.02     52.22    -22.15     25.62
   29.2141     52.77     52.03    -23.20     25.62
   29.2243     53.91     51.83    -21.86     25.62
   29.2345     52.70     51.64    -22.88     25.62
   29.2446     53.05     51.45    -22.34     25.62
   29.2548     51.20     51.26    -24.00     25.62
   29.2650     52.20     51.08    -22.82     25.62
   29.2751     51.54     50.89    -23.30     25.62
   29.2853     51.77     50.72    -22.89     25.62
   29.2955     50.23     50.54    -24.25     25.62
   29.3056     51.05     50.37    -23.26     25.62
   29.3158     50.04     50.20    -24.10     25.62
   29.3259     50.71     50.03    -23.27     25.62
   29.3361     50.66     49.87    -23.15     25.62
   29.3463     50.54     49.71    -23.11     25.62
   29.3564     50.68     49.55    -22.82     25.62
   29.3666     50.26     49.40    -23.08     25.62
   29.3768     48.88     49.25    -24.31     25.62
   29.3869     50.23     49.10    -22.81     25.62
   29.3971     49.70     48.96    -23.20     25.62
   29.4073     49.87     48.81    -22.89     25.62
   29.4174     49.62     48.68    -23.00     25.62
   29.4276     49.27     48.54    -23.21     25.62
   29.4378     48.25     48.41    -24.10     25.62
   29.4479     47.95     48.28    -24.27     25.62
   29.4581     48.86     48.15    -23.23     25.62
   29.4682     48.80     48.03    -23.17     25.62
   29.4784     49.71     47.91    -22.14     25.62
   29.4886     48.89     47.79    -22.84     25.62
   29.4987     48.04     47.67    -23.58     25.62
   29.5089     47.95     47.56    -23.55     25.62
   29.5191     47.85     47.45    -23.54     25.62
   29.5292     46.60     47.34    -24.68     25.62
   29.5394     47.99     47.24    -23.19     25.63
   29.5496     47.28     47.13    -23.80     25.63
   29.5597     46.38     47.03    -24.60     25.63
   29.5699     47.39     46.94    -23.49     25.63
   29.5801     46.84     46.84    -23.94     25.63
   29.5902     45.59     46.75    -25.10     25.63
   29.6004     47.87     46.65    -22.73     25.63
   29.6106     46.67     46.57    -23.84     25.63
   29.6207     46.09     46.48    -24.33     25.63
   29.6309     46.84     46.39    -23.49     25.63
   29.6410     45.96     46.31    -24.29     25.63
   29.6512     46.63     46.23    -23.54     25.63
   29.6614     45.26     46.15    -24.83     25.63
   29.6715     46.65     46.07    -23.36     25.63
   29.6817     46.71     45.99    -23.22     25.63
   29.6919     45.50     45.92    -24.36     25.63
   29.7020     44.77     45.84    -25.01     25.63
   29.7122     45.96     45.77    -23.75     25.63
   29.7224     45.07     45.70    -24.57     25.63
   29.7325     46.20     45.63    -23.37     25.63
   29.7427     44.74     45.56    -24.76     25.63
   29.7529     45.68     45.49    -23.75     25.63
   29.7630     45.55     45.42    -23.81     25.63
   29.7732     43.86     45.35    -25.44     25.63
   29.7833     45.41     45.29    -23.82     25.63
   29.7935     44.74     45.22    -24.43     25.63
   29.8037     44.27     45.16    -24.83     25.63
   29.8138     43.94     45.10    -25.10     25.63
   29.8240     44.63     45.03    -24.35     25.63
   29.8342     43.48     44.97    -25.43     25.63
   29.8443     44.39     44.91    -24.46     25.63
   29.8545     44.95     44.85    -23.84     25.63
   29.8647     44.91     44.79    -23.82     25.63
   29.8748     43.40     44.73    -25.27     25.63
   29.8850     44.50     44.67    -24.11     25.63
   29.8952     45.05     44.60    -23.50     25.63
   29.9053     44.40     44.54    -24.09     25.63
   29.9155     44.51     44.48    -23.92     25.63
   29.9257     44.13     44.42    -24.24     25.63
   29.9358     44.05     44.36    -24.26     25.63
   29.9460     44.96     44.30    -23.28     25.63
   29.9561     44.46     44.24    -23.72     25.63
   29.9663     44.70     44.18    -23.42     25.63
   29.9765     44.56     44.12    -23.50     25.63
   29.9866     43.29     44.06    -24.71     25.63
   29.9968     43.01     44.00    -24.93     25.64
   30.0070     43.53     43.93    -24.35     25.64
   30.0171     43.43     43.87    -24.38     25.64
   30.0273     42.54     43.81    -25.21     25.64
   30.0375     43.26     43.75    -24.43     25.64
   30.0476     44.04     43.68    -23.58     25.64
   30.0578     43.37     43.62    -24.19     25.64
   30.0680     43.99     43.55    -23.50     25.64
   30.0781     43.11     43.49    -24.32     25.64
   30.0883     43.15     43.42    -24.21     25.64
   30.0984     42.76     43.36    -24.54     25.64
   30.1086     41.70     43.29    -25.53     25.64
   30.1188     42.99     43.22    -24.17     25.64
   30.1289     42.99     43.15    -24.10     25.64
   30.1391     43.04     43.08    -23.98     25.64
   30.1493     41.65     43.01    -25.30     25.64
   30.1594     42.95     42.94    -23.93     25.64
   30.1696     42.48     42.87    -24.33     25.64
   30.1798     42.91     42.80    -23.83     25.64
   30.1899     42.28     42.73    -24.39     25.64
   30.2001     41.87     42.65    -24.72     25.64
   30.2103     42.22     42.58    -24.30     25.64
   30.2204     41.76     42.50    -24.68     25.64
   30.2306     41.76     42.43    -24.61     25.64
   30.2408     42.29     42.35    -24.00     25.64
   30.2509     43.04     42.27    -23.17     25.64
   30.2611     40.76     42.19    -25.38     25.64
   30.2712     41.54     42.12    -24.52     25.64
   30.2814     40.85     42.04    -25.13     25.64
   30.2916     41.77     41.95    -24.13     25.64
   30.3017     42.18     41.87    -23.64     25.64
   30.3119     41.82     41.79    -23.91     25.64
   30.3221     40.68     41.71    -24.97     25.64
   30.3322     40.59     41.63    -24.98     25.64
   30.3424     40.14     41.54    -25.34     25.64
   30.3526     40.37     41.46    -25.03     25.64
   30.3627     40.80     41.37    -24.51     25.64
   30.3729     40.48     41.28    -24.75     25.64
   30.3831     39.34     41.20    -25.80     25.64
   30.3932     40.45     41.11    -24.60     25.64
   30.4034     40.27     41.02    -24.69     25.64
   30.4135     40.10     40.93    -24.78     25.64
   30.4237     39.18     40.84    -25.61     25.64
   30.4339     41.33     40.75    -23.37     25.64
   30.4440     39.24     40.66    -25.36     25.64
   30.4542     40.22     40.57    -24.29     25.65
   30.4644     39.10     40.48    -25.32     25.65
   30.4745     38.76     40.39    -25.57     25.65
   30.4847     39.13     40.29    -25.11     25.65
   30.4949     39.90     40.20    -24.24     25.65
   30.5050     38.83     40.11    -25.22     25.65
   30.5152     38.76     40.01    -25.19     25.65
   30.5254     38.59     39.92    -25.27     25.65
   30.5355     38.49     39.82    -25.27     25.65
   30.5457     38.77     39.73    -24.90     25.65
   30.5559     38.25     39.63    -25.32     25.65
   30.5660     39.48     39.53    -24.00     25.65
   30.5762     38.14     39.44    -25.24     25.65
   30.5863     38.46     39.34    -24.82     25.65
   30.5965     38.24     39.24    -24.94     25.65
   30.6067     39.02     39.14    -24.07     25.65
   30.6168     37.76     39.05    -25.23     25.65
   30.6270     37.38     38.95    -25.51     25.65
   30.6372     37.34     38.85    -25.45     25.65
   30.6473     38.00     38.75    -24.69     25.65
   30.6575     37.02     38.65    -25.58     25.65
   30.6677     38.38     38.55    -24.12     25.65
   30.6778     37.56     38.46    -24.84     25.65
   30.6880     36.68     38.36    -25.62     25.65
   30.6982     37.48     38.26    -24.72     25.65
   30.7083     37.98     38.16    -24.12     25.65
   30.7185     36.79     38.06    -25.21     25.65
   30.7286     37.24     37.96    -24.66     25.65
   30.7388     36.88     37.86    -24.92     25.65
   30.7490     35.77     37.76    -25.94     25.65
   30.7591     36.93     37.66    -24.68     25.65
   30.7693     37.27     37.57    -24.24     25.65
   30.7795     36.29     37.47    -25.12     25.65
   30.7896     36.44     37.37    -24.87     25.65
   30.7998     36.29     37.27    -24.92     25.65
   30.8100     36.40     37.17    -24.71     25.65
   30.8201     35.94     37.07    -25.08     25.65
   30.8303     36.70     36.98    -24.22     25.65
   30.8405     35.51     36.88    -25.31     25.65
   30.8506     35.41     36.78    -25.31     25.65
   30.8608     37.52     36.69    -23.11     25.65
   30.8710     35.97     36.59    -24.56     25.65
   30.8811     37.19     36.49    -23.25     25.65
   30.8913     35.60     36.40    -24.74     25.65
   30.9014     35.58     36.30    -24.66     25.65
   30.9116     35.39     36.21    -24.76     25.66
   30.9218     35.94     36.11    -24.11     25.66
   30.9319     34.74     36.02    -25.22     25.66
   30.9421     35.65     35.93    -24.22     25.66
   30.9523     34.73     35.83    -25.04     25.66
   30.9624     35.45     35.74    -24.23     25.66
   30.9726     34.88     35.65    -24.71     25.66
   30.9828     35.66     35.56    -23.84     25.66
   30.9929     35.63     35.46    -23.78     25.66
   31.0031     34.80     35.37    -24.52     25.66
   31.0133     35.73     35.28    -23.50     25.66
   31.0234     34.52     35.20    -24.62     25.66
   31.0336     35.13     35.11    -23.92     25.66
   31.0437     35.23     35.02    -23.73     25.66
   31.0539     34.74     34.93    -24.13     25.66
   31.0641     34.63     34.84    -24.16     25.66
   31.0742     34.84     34.76    -23.86     25.66
   31.0844     34.22     34.67    -24.40     25.66
   31.0946     34.52     34.59    -24.01     25.66
   31.1047     35.11     34.51    -23.34     25.66
   31.1149     34.21     34.42    -24.15     25.66
   31.1251     34.39     34.34    -23.89     25.66
   31.1352     35.05     34.26    -23.15     25.66
   31.1454     33.88     34.18    -24.24     25.66
   31.1556     34.98     34.10    -23.06     25.66
   31.1657     35.37     34.02    -22.59     25.66
   31.1759     34.04     33.94    -23.84     25.66
   31.1860     35.32     33.86    -22.49     25.66
   31.1962     34.39     33.79    -23.34     25.66
   31.2064     34.89     33.71    -22.76     25.66
   31.2165     33.90     33.64    -23.68     25.66
   31.2267     35.20     33.56    -22.30     25.66
   31.2369     33.90     33.49    -23.53     25.66
   31.2470     33.34     33.42    -24.02     25.66
   31.2572     33.67     33.35    -23.62     25.66
   31.2674     34.24     33.28    -22.98     25.66
   31.2775     34.15     33.21    -23.00     25.66
   31.2877     34.02     33.14    -23.06     25.66
   31.2979     33.96     33.07    -23.05     25.66
   31.3080     34.56     33.00    -22.38     25.66
   31.3182     33.78     32.94    -23.10     25.66
   31.3284     33.38     32.87    -23.43     25.66
   31.3385     34.40     32.81    -22.35     25.66
   31.3487     34.20     32.74    -22.49     25.66
   31.3588     33.48     32.68    -23.15     25.66
   31.3690     33.38     32.62    -23.18     25.67
   31.3792     34.28     32.56    -22.22     25.67
   31.3893     33.99     32.50    -22.45     25.67
   31.3995     33.96     32.44    -22.43     25.67
   31.4097     34.29     32.39    -22.04     25.67
   31.4198     33.82     32.33    -22.45     25.67
   31.4300     33.26     32.28    -22.96     25.67
   31.4402     33.98     32.22    -22.18     25.67
   31.4503     33.64     32.17    -22.47     25.67
   31.4605     32.99     32.12    -23.07     25.67
   31.4707     33.78     32.06    -22.23     25.67
   31.4808     33.17     32.02    -22.79     25.67
   31.4910     32.43     31.97    -23.48     25.67
   31.5011     33.06     31.92    -22.80     25.67
   31.5113     33.00     31.87    -22.81     25.67
   31.5215     32.96     31.82    -22.81     25.67
   31.5316     33.49     31.78    -22.23     25.67
   31.5418     33.15     31.73    -22.53     25.67
   31.5520     33.46     31.69    -22.17     25.67
   31.5621     34.38     31.65    -21.21     25.67
   31.5723     33.69     31.61    -21.86     25.67
   31.5825     32.95     31.57    -22.56     25.67
   31.5926     32.85     31.53    -22.62     25.67
   31.6028     33.35     31.49    -22.08     25.67
   31.6130     33.48     31.45    -21.91     25.67
   31.6231     33.36     31.42    -22.00     25.67
   31.6333     32.68     31.38    -22.64     25.67
   31.6435     33.09     31.35    -22.20     25.67
   31.6536     33.15     31.31    -22.11     25.67
   31.6638     33.27     31.28    -21.95     25.67
   31.6739     33.27     31.25    -21.92     25.67
   31.6841     32.23     31.22    -22.93     25.67
   31.6943     32.63     31.19    -22.50     25.67
   31.7044     32.99     31.16    -22.11     25.67
   31.7146     33.09     31.13    -21.99     25.67
   31.7248     32.75     31.11    -22.30     25.67
   31.7349     32.59     31.08    -22.43     25.67
   31.7451     32.23     31.06    -22.77     25.67
   31.7553     32.68     31.03    -22.30     25.67
   31.7654     33.04     31.01    -21.91     25.67
   31.7756     33.70     30.99    -21.23     25.67
   31.7858     33.36     30.97    -21.55     25.67
   31.7959     32.41     30.95    -22.48     25.67
   31.8061     33.71     30.93    -21.16     25.67
   31.8162     32.66     30.91    -22.19     25.68
   31.8264     32.57     30.89    -22.26     25.68
   31.8366     33.65     30.88    -21.17     25.68
   31.8467     32.50     30.86    -22.30     25.68
   31.8569     32.73     30.85    -22.06     25.68
   31.8671     32.88     30.83    -21.89     25.68
   31.8772     32.16     30.82    -22.60     25.68
   31.8874     32.39     30.81    -22.36     25.68
   31.8976     32.99     30.80    -21.75     25.68
   31.9077     32.95     30.79    -21.78     25.68
   31.9179     32.24     30.78    -22.48     25.68
   31.9281     33.10     30.77    -21.61     25.68
   31.9382     31.43     30.76    -23.27     25.68
   31.9484     32.85     30.75    -21.84     25.68
   31.9586     32.52     30.75    -22.17     25.68
   31.9687     33.04     30.74    -21.64     25.68
   31.9789     32.17     30.74    -22.51     25.68
   31.9890     32.27     30.73    -22.40     25.68
   31.9992     32.41     30.73    -22.26     25.68
   32.0094     32.57     30.73    -22.10     25.68
   32.0195     32.10     30.73    -22.57     25.68
   32.0297     32.70     30.72    -21.97     25.68
   32.0399     32.54     30.72    -22.13     25.68
   32.0500     33.77     30.73    -20.90     25.68
   32.0602     32.54     30.73    -22.13     25.68
   32.0704     33.12     30.73    -21.55     25.68
   32.0805     32.75     30.73    -21.92     25.68
   32.0907     32.56     30.73    -22.12     25.68
   32.1009     33.47     30.74    -21.21     25.68
   32.1110     32.59     30.74    -22.10     25.68
   32.1212     33.20     30.75    -21.49     25.68
   32.1313     32.65     30.76    -22.05     25.68
   32.1415     32.76     30.76    -21.94     25.68
   32.1517     31.38     30.77    -23.33     25.68
   32.1618     32.96     30.78    -21.76     25.68
   32.1720     32.94     30.79    -21.79     25.68
   32.1822     32.05     30.79    -22.69     25.68
   32.1923     32.29     30.80    -22.46     25.68
   32.2025     31.77     30.81    -22.99     25.68
   32.2127     32.30     30.83    -22.47     25.68
   32.2228     31.86     30.84    -22.92     25.68
   32.2330     33.00     30.85    -21.79     25.68
   32.2432     30.81     30.86    -23.99     25.68
   32.2533     32.32     30.87    -22.50     25.68
   32.2635     33.21     30.89    -21.62     25.68
   32.2737     33.07     30.90    -21.77     25.69
   32.2838     32.93     30.92    -21.93     25.69
   32.2940     32.58     30.93    -22.29     25.69
   32.3041     32.48     30.95    -22.41     25.69
   32.3143     32.15     30.96    -22.75     25.69
   32.3245     33.32     30.98    -21.60     25.69
   32.3346     31.84     30.99    -23.10     25.69
   32.3448     32.31     31.01    -22.64     25.69
   32.3550     33.38     31.03    -21.59     25.69
   32.3651     32.41     31.05    -22.58     25.69
   32.3753     32.31     31.06    -22.70     25.69
   32.3855     32.15     31.08    -22.87     25.69
   32.3956     32.26     31.10    -22.78     25.69
   32.4058     33.04     31.12    -22.02     25.69
   32.4160     32.67     31.14    -22.41     25.69
   32.4261     31.87     31.16    -23.23     25.69
   32.4363     32.94     31.18    -22.18     25.69
   32.4464     32.20     31.20    -22.94     25.69
   32.4566     32.40     31.22    -22.76     25.69
   32.4668     32.66     31.24    -22.52     25.69
   32.4769     32.71     31.26    -22.49     25.69
   32.4871     32.58     31.28    -22.64     25.69
   32.4973     32.41     31.30    -22.83     25.69
   32.5074     32.32     31.32    -22.94     25.69
   32.5176     32.25     31.34    -23.04     25.69
   32.5278     32.18     31.37    -23.13     25.69
   32.5379     32.48     31.39    -22.85     25.69
   32.5481     32.27     31.41    -23.08     25.69
   32.5583     31.88     31.43    -23.49     25.69
   32.5684     32.84     31.45    -22.55     25.69
   32.5786     32.23     31.47    -23.19     25.69
   32.5888     31.95     31.50    -23.49     25.69
   32.5989     31.68     31.52    -23.78     25.69
   32.6091     32.21     31.54    -23.27     25.69
   32.6192     31.64     31.56    -23.86     25.69
   32.6294     32.54     31.58    -22.99     25.69
   32.6396     32.43     31.61    -23.12     25.69
   32.6497     32.15     31.63    -23.42     25.69
   32.6599     32.55     31.65    -23.04     25.69
   32.6701     32.00     31.67    -23.61     25.69
   32.6802     32.58     31.69    -23.06     25.69
   32.6904     32.85     31.72    -22.81     25.69
   32.7006     32.77     31.74    -22.91     25.69
   32.7107     31.99     31.76    -23.71     25.69
   32.7209     32.32     31.78    -23.40     25.69
   32.7311     31.95     31.80    -23.79     25.70
   32.7412     33.00     31.82    -22.76     25.70
   32.7514     32.37     31.84    -23.41     25.70
   32.7615     31.95     31.86    -23.85     25.70
   32.7717     32.45     31.88    -23.38     25.70
   32.7819     32.93     31.90    -22.92     25.70
   32.7920     32.80     31.92    -23.06     25.70
   32.8022     32.82     31.94    -23.06     25.70
   32.8124     33.64     31.96    -22.26     25.70
   32.8225     32.62     31.98    -23.30     25.70
   32.8327     32.70     32.00    -23.24     25.70
   32.8429     33.17     32.02    -22.79     25.70
   32.8530     31.57     32.04    -24.41     25.70
   32.8632     31.97     32.05    -24.03     25.70
   32.8734     32.28     32.07    -23.73     25.70
   32.8835     33.29     32.09    -22.74     25.70
   32.8937     31.51     32.10    -24.54     25.70
   32.9039     32.25     32.12    -23.81     25.70
   32.9140     32.56     32.14    -23.52     25.70
   32.9242     32.37     32.15    -23.72     25.70
   32.9343     31.99     32.17    -24.12     25.70
   32.9445     32.86     32.18    -23.26     25.70
   32.9547     32.60     32.20    -23.54     25.70
   32.9648     32.52     32.21    -23.63     25.70
   32.9750     33.05     32.22    -23.11     25.70
   32.9852     32.87     32.23    -23.31     25.70
   32.9953     32.87     32.25    -23.32     25.70
   33.0055     32.27     32.26    -23.93     25.70
   33.0157     32.15     32.27    -24.06     25.70
   33.0258     32.50     32.28    -23.72     25.70
   33.0360     32.26     32.29    -23.97     25.70
   33.0462     32.97     32.30    -23.27     25.70
   33.0563     33.50     32.31    -22.75     25.70
   33.0665     32.45     32.32    -23.81     25.70
   33.0766     31.84     32.32    -24.43     25.70
   33.0868     33.17     32.33    -23.10     25.70
   33.0970     32.70     32.34    -23.58     25.70
   33.1071     33.00     32.34    -23.29     25.70
   33.1173     32.98     32.35    -23.31     25.70
   33.1275     34.01     32.35    -22.29     25.70
   33.1376     32.17     32.36    -24.13     25.70
   33.1478     33.16     32.36    -23.14     25.70
   33.1580     32.77     32.36    -23.54     25.70
   33.1681     33.19     32.37    -23.12     25.70
   33.1783     33.34     32.37    -22.97     25.70
   33.1885     33.04     32.37    -23.27     25.71
   33.1986     33.10     32.37    -23.21     25.71
   33.2088     33.87     32.37    -22.44     25.71
   33.2189     33.55     32.37    -22.76     25.71
   33.2291     32.84     32.37    -23.47     25.71
   33.2393     33.19     32.36    -23.12     25.71
   33.2494     33.34     32.36    -22.96     25.71
   33.2596     33.05     32.36    -23.25     25.71
   33.2698     33.18     32.35    -23.12     25.71
   33.2799     33.60     32.35    -22.69     25.71
   33.2901     33.62     32.34    -22.67     25.71
   33.3003     33.62     32.34    -22.66     25.71
   33.3104     33.10     32.33    -23.17     25.71
   33.3206     33.47     32.32    -22.79     25.71
   33.3308     32.64     32.31    -23.62     25.71
   33.3409     33.57     32.30    -22.68     25.71
   33.3511     33.83     32.29    -22.41     25.71
   33.3613     33.37     32.28    -22.86     25.71
   33.3714     33.76     32.27    -22.45     25.71
   33.3816     32.85     32.26    -23.35     25.71
   33.3917     33.59     32.25    -22.60     25.71
   33.4019     32.75     32.23    -23.43     25.71
   33.4121     33.91     32.22    -22.25     25.71
   33.4222     32.51     32.21    -23.64     25.71
   33.4324     32.11     32.19    -24.02     25.71
   33.4426     32.93     32.17    -23.19     25.71
   33.4527     32.72     32.16    -23.38     25.71
   33.4629     33.38     32.14    -22.70     25.71
   33.4731     33.44     32.12    -22.62     25.71
   33.4832     33.49     32.10    -22.56     25.71
   33.4934     33.55     32.08    -22.48     25.71
   33.5036     32.79     32.06    -23.22     25.71
   33.5137     32.79     32.04    -23.20     25.71
   33.5239     31.84     32.02    -24.12     25.71
   33.5340     31.80     32.00    -24.14     25.71
   33.5442     32.82     31.98    -23.10     25.71
   33.5544     31.71     31.96    -24.19     25.71
   33.5645     32.70     31.93    -23.17     25.71
   33.5747     32.15     31.91    -23.70     25.71
   33.5849     32.38     31.88    -23.44     25.71
   33.5950     32.10     31.86    -23.70     25.71
   33.6052     32.40     31.83    -23.37     25.71
   33.6154     31.99     31.80    -23.76     25.71
   33.6255     31.73     31.78    -23.99     25.71
   33.6357     31.29     31.75    -24.40     25.72
   33.6459     31.68     31.72    -23.98     25.72
   33.6560     31.65     31.69    -23.98     25.72
   33.6662     31.76     31.66    -23.84     25.72
   33.6764     31.46     31.63    -24.11     25.72
   33.6865     32.03     31.60    -23.51     25.72
   33.6967     31.13     31.57    -24.38     25.72
   33.7068     30.84     31.54    -24.64     25.72
   33.7170     30.85     31.51    -24.60     25.72
   33.7272     31.12     31.47    -24.29     25.72
   33.7373     30.69     31.44    -24.69     25.72
   33.7475     31.05     31.41    -24.30     25.72
   33.7577     30.62     31.37    -24.69     25.72
   33.7678     29.66     31.34    -25.62     25.72
   33.7780     30.67     31.30    -24.57     25.72
   33.7882     30.42     31.27    -24.79     25.72
   33.7983     30.34     31.23    -24.83     25.72
   33.8085     29.84     31.20    -25.30     25.72
   33.8187     29.90     31.16    -25.20     25.72
   33.8288     30.40     31.12    -24.66     25.72
   33.8390     30.78     31.08    -24.25     25.72
   33.8491     29.72     31.05    -25.27     25.72
   33.8593     29.99     31.01    -24.96     25.72
   33.8695     30.37     30.97    -24.54     25.72
   33.8796     30.27     30.93    -24.60     25.72
   33.8898     29.67     30.89    -25.17     25.72
   33.9000     29.68     30.85    -25.12     25.72
   33.9101     29.25     30.82    -25.51     25.72
   33.9203     29.66     30.78    -25.06     25.72
   33.9305     28.54     30.74    -26.14     25.72
   33.9406     29.18     30.70    -25.46     25.72
   33.9508     29.48     30.65    -25.12     25.72
   33.9610     28.47     30.61    -26.09     25.72
   33.9711     29.01     30.57    -25.51     25.72
   33.9813     29.23     30.53    -25.24     25.72
   33.9915     28.70     30.49    -25.73     25.72
   34.0016     29.89     30.45    -24.50     25.72
   34.0118     28.64     30.41    -25.71     25.72
   34.0219     28.54     30.37    -25.77     25.72
   34.0321     27.85     30.32    -26.42     25.72
   34.0423     28.61     30.28    -25.61     25.72
   34.0524     28.22     30.24    -25.96     25.72
   34.0626     28.22     30.20    -25.92     25.72
   34.0728     28.70     30.16    -25.40     25.72
   34.0829     28.70     30.11    -25.36     25.72
   34.0931     28.71     30.07    -25.30     25.73
   34.1033     27.85     30.03    -26.12     25.73
   34.1134     28.47     29.99    -25.46     25.73
   34.1236     28.02     29.94    -25.87     25.73
   34.1338     28.87     29.90    -24.97     25.73
   34.1439     28.10     29.86    -25.70     25.73
   34.1541     27.29     29.82    -26.47     25.73
   34.1642     27.66     29.77    -26.05     25.73
   34.1744     27.71     29.73    -25.96     25.73
   34.1846     27.85     29.69    -25.78     25.73
   34.1947     27.93     29.65    -25.66     25.73
   34.2049     27.96     29.60    -25.58     25.73
   34.2151     27.43     29.56    -26.07     25.73
   34.2252     27.46     29.52    -26.00     25.73
   34.2354     26.66     29.48    -26.76     25.73
   34.2456     27.65     29.43    -25.73     25.73
   34.2557     28.36     29.39    -24.97     25.73
   34.2659     27.11     29.35    -26.18     25.73
   34.2761     27.53     29.31    -25.72     25.73
   34.2862     27.49     29.27    -25.72     25.73
   34.2964     27.63     29.22    -25.54     25.73
   34.3066     27.50     29.18    -25.63     25.73
   34.3167     27.07     29.14    -26.01     25.73
   34.3269     26.73     29.10    -26.31     25.73
   34.3370     27.24     29.06    -25.76     25.73
   34.3472     27.20     29.02    -25.76     25.73
   34.3574     27.42     28.98    -25.50     25.73
   34.3675     27.55     28.94    -25.33     25.73
   34.3777     27.17     28.90    -25.67     25.73
   34.3879     27.06     28.86    -25.74     25.73
   34.3980     26.99     28.82    -25.77     25.73
   34.4082     26.46     28.78    -26.26     25.73
   34.4184     27.01     28.74    -25.67     25.73
   34.4285     26.96     28.70    -25.68     25.73
   34.4387     27.20     28.66    -25.41     25.73
   34.4489     27.24     28.62    -25.33     25.73
   34.4590     26.70     28.59    -25.83     25.73
   34.4692     26.24     28.55    -26.25     25.73
   34.4793     26.87     28.51    -25.58     25.73
   34.4895     27.32     28.47    -25.10     25.73
   34.4997     27.05     28.44    -25.33     25.73
   34.5098     27.18     28.40    -25.16     25.73
   34.5200     26.17     28.36    -26.14     25.73
   34.5302     26.48     28.33    -25.79     25.73
   34.5403     26.31     28.29    -25.92     25.73
   34.5505     26.66     28.26    -25.54     25.74
   34.5607     26.63     28.22    -25.53     25.74
   34.5708     25.58     28.19    -26.55     25.74
   34.5810     26.69     28.15    -25.40     25.74
   34.5912     25.98     28.12    -26.08     25.74
   34.6013     26.41     28.08    -25.62     25.74
   34.6115     25.79     28.05    -26.20     25.74
   34.6217     26.18     28.02    -25.78     25.74
   34.6318     26.22     27.98    -25.71     25.74
   34.6420     25.90     27.95    -25.99     25.74
   34.6521     26.37     27.92    -25.49     25.74
   34.6623     26.38     27.89    -25.45     25.74
   34.6725     26.61     27.85    -25.19     25.74
   34.6826     25.99     27.82    -25.78     25.74
   34.6928     26.70     27.79    -25.03     25.74
   34.7030     25.80     27.76    -25.90     25.74
   34.7131     26.34     27.73    -25.33     25.74
   34.7233     26.32     27.70    -25.32     25.74
   34.7335     26.14     27.67    -25.47     25.74
   34.7436     26.45     27.64    -25.13     25.74
   34.7538     26.43     27.61    -25.13     25.74
   34.7640     26.71     27.59    -24.82     25.74
   34.7741     26.01     27.56    -25.49     25.74
   34.7843     25.90     27.53    -25.57     25.74
   34.7944     26.32     27.50    -25.12     25.74
   34.8046     26.57     27.47    -24.85     25.74
   34.8148     26.77     27.45    -24.62     25.74
   34.8249     25.74     27.42    -25.62     25.74
   34.8351     25.82     27.40    -25.52     25.74
   34.8453     25.43     27.37    -25.88     25.74
   34.8554     26.71     27.34    -24.58     25.74
   34.8656     25.63     27.32    -25.63     25.74
   34.8758     25.35     27.29    -25.89     25.74
   34.8859     25.43     27.27    -25.78     25.74
   34.8961     26.53     27.25    -24.66     25.74
   34.9063     25.34     27.22    -25.82     25.74
   34.9164     25.40     27.20    -25.74     25.74
   34.9266     26.25     27.18    -24.87     25.74
   34.9367     25.84     27.15    -25.26     25.74
   34.9469     26.02     27.13    -25.05     25.74
   34.9571     26.87     27.11    -24.18     25.74
   34.9672     26.55     27.09    -24.48     25.74
   34.9774     26.40     27.07    -24.61     25.74
   34.9876     26.82     27.05    -24.17     25.74
   34.9977     25.43     27.03    -25.54     25.74
   35.0079     25.80     27.01    -25.15     25.75
   35.0181     26.04     26.98    -24.89     25.75
   35.0282     25.80     26.97    -25.11     25.75
   35.0384     25.80     26.95    -25.09     25.75
   35.0486     25.87     26.93    -25.00     25.75
   35.0587     26.55     26.91    -24.30     25.75
   35.0689     25.57     26.89    -25.26     25.75
   35.0791     25.64     26.87    -25.17     25.75
   35.0892     26.12     26.85    -24.68     25.75
   35.0994     25.68     26.84    -25.10     25.75
   35.1095     25.36     26.82    -25.40     25.75
   35.1197     25.49     26.80    -25.25     25.75
   35.1299     25.21     26.79    -25.52     25.75
   35.1400     25.52     26.77    -25.19     25.75
   35.1502     24.90     26.75    -25.80     25.75
   35.1604     24.98     26.74    -25.70     25.75
   35.1705     25.77     26.72    -24.89     25.75
   35.1807     25.59     26.71    -25.06     25.75
   35.1909     25.86     26.69    -24.77     25.75
   35.2010     25.56     26.68    -25.06     25.75
   35.2112     25.26     26.66    -25.35     25.75
   35.2214     24.90     26.65    -25.69     25.75
   35.2315     26.13     26.64    -24.45     25.75
   35.2417     25.49     26.62    -25.07     25.75
   35.2518     25.42     26.61    -25.13     25.75
   35.2620     25.70     26.59    -24.84     25.75
   35.2722     25.34     26.58    -25.18     25.75
   35.2823     25.26     26.57    -25.25     25.75
   35.2925     26.13     26.56    -24.37     25.75
   35.3027     25.12     26.54    -25.37     25.75
   35.3128     25.16     26.53    -25.31     25.75
   35.3230     25.75     26.52    -24.71     25.75
   35.3332     24.96     26.51    -25.49     25.75
   35.3433     25.11     26.50    -25.33     25.75
   35.3535     25.04     26.49    -25.39     25.75
   35.3637     25.05     26.48    -25.37     25.75
   35.3738     25.32     26.47    -25.09     25.75
   35.3840     25.30     26.46    -25.10     25.75
   35.3942     25.91     26.45    -24.48     25.75
   35.4043     24.88     26.44    -25.50     25.75
   35.4145     25.14     26.43    -25.23     25.75
   35.4246     25.15     26.42    -25.21     25.75
   35.4348     25.05     26.41    -25.30     25.75
   35.4450     25.94     26.40    -24.40     25.75
   35.4551     25.21     26.39    -25.12     25.76
   35.4653     25.77     26.38    -24.55     25.76
   35.4755     24.99     26.37    -25.32     25.76
   35.4856     25.12     26.36    -25.18     25.76
   35.4958     25.37     26.35    -24.93     25.76
   35.5060     24.87     26.35    -25.42     25.76
   35.5161     25.46     26.34    -24.82     25.76
   35.5263     24.41     26.33    -25.86     25.76
   35.5365     25.32     26.32    -24.94     25.76
   35.5466     24.93     26.31    -25.33     25.76
   35.5568     25.94     26.31    -24.31     25.76
   35.5669     24.93     26.30    -25.31     25.76
   35.5771     24.63     26.29    -25.60     25.76
   35.5873     25.23     26.29    -25.00     25.76
   35.5974     24.34     26.28    -25.88     25.76
   35.6076     24.21     26.27    -26.00     25.76
   35.6178     24.88     26.27    -25.33     25.76
   35.6279     25.06     26.26    -25.14     25.76
   35.6381     24.98     26.25    -25.21     25.76
   35.6483     25.15     26.25    -25.04     25.76
   35.6584     24.69     26.24    -25.49     25.76
   35.6686     24.59     26.23    -25.59     25.76
   35.6788     25.45     26.23    -24.72     25.76
   35.6889     25.15     26.22    -25.02     25.76
   35.6991     24.80     26.22    -25.36     25.76
   35.7093     25.24     26.21    -24.91     25.76
   35.7194     25.16     26.21    -24.99     25.76
   35.7296     24.13     26.20    -26.01     25.76
   35.7397     24.81     26.20    -25.33     25.76
   35.7499     24.61     26.19    -25.52     25.76
   35.7601     25.11     26.19    -25.02     25.76
   35.7702     24.48     26.18    -25.64     25.76
   35.7804     24.76     26.18    -25.36     25.76
   35.7906     24.64     26.17    -25.47     25.76
   35.8007     24.55     26.17    -25.56     25.76
   35.8109     24.68     26.16    -25.43     25.76
   35.8211     24.78     26.16    -25.32     25.76
   35.8312     24.74     26.16    -25.36     25.76
   35.8414     24.15     26.15    -25.94     25.76
   35.8516     24.96     26.15    -25.13     25.76
   35.8617     24.97     26.14    -25.11     25.76
   35.8719     24.96     26.14    -25.12     25.76
   35.8820     24.93     26.14    -25.15     25.76
   35.8922     24.77     26.13    -25.30     25.76
   35.9024     24.29     26.13    -25.78     25.76
   35.9125     25.79     26.12    -24.28     25.77
   35.9227     24.59     26.12    -25.47     25.77
   35.9329     24.05     26.12    -26.01     25.77
   35.9430     25.70     26.11    -24.36     25.77
   35.9532     24.42     26.11    -25.63     25.77
   35.9634     24.01     26.11    -26.04     25.77
   35.9735     24.37     26.10    -25.68     25.77
   35.9837     24.60     26.10    -25.44     25.77
   35.9939     25.04     26.10    -25.00     25.77
   36.0040     24.79     26.09    -25.25     25.77
   36.0142     24.73     26.09    -25.30     25.77
   36.0244     25.05     26.09    -24.98     25.77
   36.0345     24.19     26.09    -25.84     25.77
   36.0447     24.73     26.08    -25.29     25.77
   36.0548     24.12     26.08    -25.90     25.77
   36.0650     25.53     26.08    -24.49     25.77
   36.0752     24.16     26.07    -25.86     25.77
   36.0853     24.35     26.07    -25.66     25.77
   36.0955     24.38     26.07    -25.63     25.77
