! WinPLOTR profile fitting results:
!   data file: G107--5-40-0.01-1000ms.xy
!    wave (A):      1.54060     1.54060     0.50000
!
!   2theta(deg.) sig_2th        d(A)   Intensity     sig_int         FWHM    FWHM_sig         ETA     ETA_sig
!------------------------------------------------------------------------------------------------------------------
   18.741135    0.000000     4.73102      137.87        0.00     0.819214    0.000000    0.211159    0.012103
   20.700001    0.000000     4.28753       51.49        0.00     1.221670    0.000000    0.211159    0.012103
   22.583624    0.000000     3.93400       94.56        0.00     1.063679    0.000000    0.211159    0.012103
   28.632250    0.000000     3.11520       44.91        0.00     1.277565    0.000000    0.211159    0.012103
   33.432541    0.000000     2.67807        6.23        0.85     1.206037    0.000000    0.211159    0.012103
   30.116962    0.000000     2.96492       37.29        0.00     3.927046    0.000000    0.211159    0.012103
   17.481205    0.000000     5.06905       35.74        0.00     2.206037    0.000000    0.211159    0.012103
   19.987469    0.000000     4.43873      799.15        5.75     9.324430    0.069469    0.211159    0.012103
   18.728941    0.000000     4.73407      197.32        6.70     0.815597    0.022809    0.812764    0.031656
   20.533670    0.000000     4.32188       78.79        8.78     1.213508    0.102194    0.812764    0.031656
   22.576540    0.000000     3.93521      140.06        5.93     1.096637    0.038696    0.812764    0.031656
   28.605654    0.000000     3.11803       40.39        3.33     0.946068    0.070943    0.812764    0.031656
   29.352409    0.000000     3.04038       37.51        5.46     2.472422    0.288261    0.812764    0.031656
   33.034214    0.000000     2.70945       23.38        2.38     2.225617    0.000000    0.812764    0.031656
   16.906849    0.000000     5.23994       67.15        0.00     2.397373    0.170229    0.812764    0.031656
   20.191669    0.000000     4.39430     1009.00       36.19    10.700710    0.442481    0.812764    0.031656
