 => TITLE: 
 => Data file name: C:\Users\stefano\Nextcloud2\notes\uni\thesis\XRD\data\G107\G107--5-40-0.01-1000ms.xy
 => Instrm        :    1
 => Lambda(1&2)   :   1.54060  1.54060
 => Numb.of.points:      2926
 => Numb.of.peaks :         8
    2Theta     Yobs     Ycalc  Yobs-Ycal    Backg    Bragg     Posr  Intensity   FWHM    Eta
    6.2830     23.22     24.19    -26.32     17.25   18.7289     -1.48     197.32  0.8156  0.8128
    6.2932     22.64     24.20    -26.91     17.25   20.5337     -1.48      78.79  1.2135  0.8128
    6.3034     23.04     24.21    -26.52     17.25   22.5765     -1.48     140.06  1.0966  0.8128
    6.3135     23.26     24.22    -26.31     17.25   28.6057     -1.48      40.39  0.9461  0.8128
    6.3237     23.34     24.23    -26.24     17.25   29.3524     -1.48      37.51  2.4724  0.8128
    6.3338     22.91     24.24    -26.68     17.25   33.0342     -1.48      23.38  2.2256  0.8128
    6.3440     22.59     24.25    -27.01     17.25   16.9068     -1.48      67.15  2.3974  0.8128
    6.3542     23.65     24.25    -25.96     17.25   20.1917     -1.48    1009.00 10.7007  0.8128
    6.3643     22.83     24.26    -26.79     17.25
    6.3745     22.65     24.27    -26.98     17.25
    6.3847     23.20     24.28    -26.44     17.25
    6.3948     22.79     24.29    -26.86     17.25
    6.4050     23.23     24.30    -26.43     17.25
    6.4152     23.37     24.31    -26.30     17.25
    6.4253     22.83     24.32    -26.85     17.25
    6.4355     23.57     24.33    -26.12     17.25
    6.4457     23.13     24.34    -26.57     17.25
    6.4558     22.65     24.35    -27.06     17.25
    6.4660     22.92     24.36    -26.80     17.25
    6.4762     22.84     24.37    -26.89     17.25
    6.4863     23.04     24.38    -26.70     17.25
    6.4965     23.48     24.39    -26.27     17.25
    6.5066     22.54     24.40    -27.22     17.25
    6.5168     22.93     24.41    -26.84     17.25
    6.5270     24.30     24.42    -25.48     17.25
    6.5371     22.40     24.43    -27.39     17.25
    6.5473     22.93     24.45    -26.87     17.25
    6.5575     22.86     24.46    -26.95     17.25
    6.5676     22.98     24.47    -26.84     17.25
    6.5778     23.27     24.48    -26.56     17.24
    6.5880     23.02     24.49    -26.82     17.24
    6.5981     22.87     24.50    -26.98     17.24
    6.6083     23.59     24.51    -26.27     17.24
    6.6185     23.30     24.52    -26.57     17.24
    6.6286     23.37     24.53    -26.51     17.24
    6.6388     22.79     24.54    -27.10     17.24
    6.6489     23.09     24.55    -26.81     17.24
    6.6591     23.85     24.56    -26.06     17.24
    6.6693     23.26     24.57    -26.66     17.24
    6.6794     23.59     24.58    -26.34     17.24
    6.6896     23.72     24.59    -26.22     17.24
    6.6998     23.12     24.60    -26.83     17.24
    6.7099     23.04     24.61    -26.92     17.24
    6.7201     23.78     24.62    -26.20     17.24
    6.7303     23.38     24.63    -26.61     17.24
    6.7404     23.51     24.64    -26.49     17.24
    6.7506     23.49     24.66    -26.52     17.24
    6.7608     23.65     24.67    -26.37     17.24
    6.7709     23.07     24.68    -26.96     17.24
    6.7811     23.62     24.69    -26.42     17.24
    6.7913     23.73     24.70    -26.32     17.24
    6.8014     23.67     24.71    -26.39     17.24
    6.8116     23.31     24.72    -26.76     17.24
    6.8217     23.76     24.73    -26.32     17.24
    6.8319     24.37     24.74    -25.72     17.24
    6.8421     23.00     24.75    -27.11     17.24
    6.8522     23.74     24.76    -26.38     17.24
    6.8624     24.23     24.78    -25.90     17.24
    6.8726     23.66     24.79    -26.48     17.24
    6.8827     23.21     24.80    -26.94     17.24
    6.8929     23.60     24.81    -26.56     17.24
    6.9031     24.07     24.82    -26.10     17.24
    6.9132     23.25     24.83    -26.93     17.24
    6.9234     24.33     24.84    -25.86     17.24
    6.9336     24.13     24.85    -26.08     17.24
    6.9437     23.27     24.86    -26.95     17.24
    6.9539     24.57     24.88    -25.66     17.24
    6.9640     24.45     24.89    -25.79     17.24
    6.9742     24.69     24.90    -25.56     17.24
    6.9844     24.88     24.91    -25.38     17.24
    6.9945     24.58     24.92    -25.69     17.24
    7.0047     23.18     24.93    -27.11     17.24
    7.0149     23.68     24.94    -26.62     17.24
    7.0250     24.85     24.96    -25.46     17.24
    7.0352     23.61     24.97    -26.71     17.24
    7.0454     24.00     24.98    -26.33     17.24
    7.0555     24.54     24.99    -25.80     17.24
    7.0657     24.55     25.00    -25.80     17.24
    7.0759     24.69     25.01    -25.68     17.23
    7.0860     23.62     25.03    -26.76     17.23
    7.0962     24.71     25.04    -25.68     17.23
    7.1064     23.55     25.05    -26.85     17.23
    7.1165     23.76     25.06    -26.65     17.23
    7.1267     23.62     25.07    -26.80     17.23
    7.1368     23.79     25.08    -26.65     17.23
    7.1470     23.91     25.10    -26.54     17.23
    7.1572     24.25     25.11    -26.21     17.23
    7.1673     23.49     25.12    -26.98     17.23
    7.1775     23.97     25.13    -26.51     17.23
    7.1877     24.76     25.14    -25.74     17.23
    7.1978     24.79     25.16    -25.72     17.23
    7.2080     24.02     25.17    -26.50     17.23
    7.2182     23.66     25.18    -26.87     17.23
    7.2283     24.37     25.19    -26.17     17.23
    7.2385     24.68     25.20    -25.88     17.23
    7.2487     24.57     25.22    -26.00     17.23
    7.2588     24.72     25.23    -25.86     17.23
    7.2690     25.13     25.24    -25.46     17.23
    7.2791     24.40     25.25    -26.21     17.23
    7.2893     23.97     25.27    -26.65     17.23
    7.2995     23.97     25.28    -26.66     17.23
    7.3096     24.35     25.29    -26.29     17.23
    7.3198     24.96     25.30    -25.69     17.23
    7.3300     23.98     25.31    -26.69     17.23
    7.3401     24.17     25.33    -26.51     17.23
    7.3503     25.38     25.34    -25.31     17.23
    7.3605     24.68     25.35    -26.02     17.23
    7.3706     24.14     25.36    -26.58     17.23
    7.3808     24.42     25.38    -26.31     17.23
    7.3910     24.70     25.39    -26.04     17.23
    7.4011     24.42     25.40    -26.33     17.23
    7.4113     24.44     25.42    -26.33     17.23
    7.4215     23.91     25.43    -26.87     17.23
    7.4316     24.85     25.44    -25.94     17.23
    7.4418     24.87     25.45    -25.94     17.23
    7.4519     24.10     25.47    -26.72     17.23
    7.4621     25.57     25.48    -25.26     17.23
    7.4723     24.32     25.49    -26.52     17.23
    7.4824     23.88     25.50    -26.98     17.23
    7.4926     25.12     25.52    -25.75     17.23
    7.5028     24.68     25.53    -26.20     17.23
    7.5129     24.74     25.54    -26.16     17.23
    7.5231     25.25     25.56    -25.66     17.23
    7.5333     25.70     25.57    -25.22     17.23
    7.5434     24.88     25.58    -26.05     17.23
    7.5536     25.48     25.60    -25.47     17.23
    7.5638     25.12     25.61    -25.84     17.23
    7.5739     24.91     25.62    -26.06     17.22
    7.5841     25.45     25.64    -25.54     17.22
    7.5942     25.20     25.65    -25.80     17.22
    7.6044     24.80     25.66    -26.21     17.22
    7.6146     25.30     25.68    -25.73     17.22
    7.6247     24.62     25.69    -26.42     17.22
    7.6349     25.30     25.70    -25.75     17.22
    7.6451     24.80     25.72    -26.27     17.22
    7.6552     24.63     25.73    -26.45     17.22
    7.6654     25.76     25.74    -25.33     17.22
    7.6756     25.38     25.76    -25.73     17.22
    7.6857     24.37     25.77    -26.75     17.22
    7.6959     24.96     25.78    -26.18     17.22
    7.7061     25.78     25.80    -25.37     17.22
    7.7162     25.41     25.81    -25.75     17.22
    7.7264     25.38     25.82    -25.80     17.22
    7.7365     26.24     25.84    -24.95     17.22
    7.7467     26.30     25.85    -24.90     17.22
    7.7569     25.12     25.87    -26.10     17.22
    7.7670     25.18     25.88    -26.05     17.22
    7.7772     25.35     25.89    -25.90     17.22
    7.7874     25.15     25.91    -26.11     17.22
    7.7975     25.47     25.92    -25.80     17.22
    7.8077     26.24     25.94    -25.05     17.22
    7.8179     25.77     25.95    -25.53     17.22
    7.8280     25.59     25.96    -25.73     17.22
    7.8382     24.80     25.98    -26.53     17.22
    7.8484     24.74     25.99    -26.60     17.22
    7.8585     25.49     26.01    -25.87     17.22
    7.8687     25.57     26.02    -25.80     17.22
    7.8789     25.63     26.03    -25.76     17.22
    7.8890     25.90     26.05    -25.50     17.22
    7.8992     25.79     26.06    -25.63     17.22
    7.9093     25.70     26.08    -25.73     17.22
    7.9195     27.01     26.09    -24.43     17.22
    7.9297     25.62     26.11    -25.84     17.22
    7.9398     26.37     26.12    -25.10     17.22
    7.9500     25.64     26.14    -25.85     17.22
    7.9602     25.90     26.15    -25.60     17.22
    7.9703     25.89     26.16    -25.63     17.22
    7.9805     26.46     26.18    -25.07     17.22
    7.9907     26.55     26.19    -25.00     17.22
    8.0008     26.26     26.21    -25.30     17.22
    8.0110     25.84     26.22    -25.74     17.22
    8.0212     26.35     26.24    -25.24     17.22
    8.0313     25.73     26.25    -25.88     17.22
    8.0415     26.10     26.27    -25.52     17.22
    8.0516     25.95     26.28    -25.69     17.22
    8.0618     25.96     26.30    -25.69     17.22
    8.0720     25.90     26.31    -25.77     17.21
    8.0821     25.60     26.33    -26.08     17.21
    8.0923     26.87     26.34    -24.83     17.21
    8.1025     27.20     26.36    -24.51     17.21
    8.1126     25.97     26.37    -25.76     17.21
    8.1228     26.54     26.39    -25.20     17.21
    8.1330     25.65     26.40    -26.11     17.21
    8.1431     25.99     26.42    -25.78     17.21
    8.1533     26.02     26.44    -25.77     17.21
    8.1635     26.30     26.45    -25.50     17.21
    8.1736     27.10     26.47    -24.72     17.21
    8.1838     25.86     26.48    -25.97     17.21
    8.1940     26.48     26.50    -25.37     17.21
    8.2041     26.03     26.51    -25.83     17.21
    8.2143     25.73     26.53    -26.15     17.21
    8.2244     27.20     26.54    -24.70     17.21
    8.2346     26.42     26.56    -25.49     17.21
    8.2448     26.98     26.58    -24.95     17.21
    8.2549     26.61     26.59    -25.33     17.21
    8.2651     26.66     26.61    -25.30     17.21
    8.2753     26.17     26.62    -25.80     17.21
    8.2854     26.30     26.64    -25.69     17.21
    8.2956     26.26     26.65    -25.75     17.21
    8.3058     26.62     26.67    -25.40     17.21
    8.3159     27.15     26.69    -24.89     17.21
    8.3261     26.69     26.70    -25.36     17.21
    8.3363     26.19     26.72    -25.88     17.21
    8.3464     26.83     26.73    -25.26     17.21
    8.3566     25.95     26.75    -26.15     17.21
    8.3667     26.31     26.77    -25.81     17.21
    8.3769     27.24     26.78    -24.90     17.21
    8.3871     26.93     26.80    -25.22     17.21
    8.3972     27.05     26.82    -25.12     17.21
    8.4074     27.26     26.83    -24.92     17.21
    8.4176     26.84     26.85    -25.36     17.21
    8.4277     26.82     26.87    -25.40     17.21
    8.4379     27.23     26.88    -25.00     17.21
    8.4481     27.01     26.90    -25.24     17.21
    8.4582     27.29     26.91    -24.98     17.21
    8.4684     27.90     26.93    -24.38     17.21
    8.4786     27.47     26.95    -24.83     17.21
    8.4887     27.59     26.97    -24.73     17.21
    8.4989     26.93     26.98    -25.40     17.21
    8.5091     27.55     27.00    -24.80     17.21
    8.5192     27.62     27.02    -24.75     17.21
    8.5294     27.72     27.03    -24.66     17.21
    8.5395     27.57     27.05    -24.83     17.21
    8.5497     27.35     27.07    -25.07     17.21
    8.5599     27.59     27.08    -24.85     17.21
    8.5700     27.28     27.10    -25.17     17.20
    8.5802     27.14     27.12    -25.33     17.20
    8.5904     27.62     27.14    -24.87     17.20
    8.6005     27.12     27.15    -25.38     17.20
    8.6107     28.23     27.17    -24.29     17.20
    8.6209     28.04     27.19    -24.50     17.20
    8.6310     27.75     27.20    -24.81     17.20
    8.6412     27.32     27.22    -25.25     17.20
    8.6514     27.70     27.24    -24.89     17.20
    8.6615     27.23     27.26    -25.38     17.20
    8.6717     27.09     27.27    -25.54     17.20
    8.6818     28.23     27.29    -24.41     17.20
    8.6920     27.68     27.31    -24.98     17.20
    8.7022     28.55     27.33    -24.13     17.20
    8.7123     27.62     27.35    -25.08     17.20
    8.7225     27.82     27.36    -24.90     17.20
    8.7327     27.24     27.38    -25.49     17.20
    8.7428     27.75     27.40    -25.00     17.20
    8.7530     28.55     27.42    -24.22     17.20
    8.7632     27.25     27.44    -25.54     17.20
    8.7733     27.95     27.45    -24.86     17.20
    8.7835     29.27     27.47    -23.55     17.20
    8.7937     28.05     27.49    -24.79     17.20
    8.8038     28.30     27.51    -24.56     17.20
    8.8140     28.20     27.53    -24.68     17.20
    8.8242     27.92     27.55    -24.98     17.20
    8.8343     28.28     27.56    -24.64     17.20
    8.8445     27.87     27.58    -25.06     17.20
    8.8546     27.43     27.60    -25.52     17.20
    8.8648     28.78     27.62    -24.19     17.20
    8.8750     28.09     27.64    -24.90     17.20
    8.8851     28.93     27.66    -24.08     17.20
    8.8953     27.21     27.67    -25.82     17.20
    8.9055     28.46     27.69    -24.59     17.20
    8.9156     28.51     27.71    -24.55     17.20
    8.9258     27.82     27.73    -25.26     17.20
    8.9360     27.82     27.75    -25.28     17.20
    8.9461     27.93     27.77    -25.19     17.20
    8.9563     27.98     27.79    -25.16     17.20
    8.9665     28.07     27.81    -25.09     17.20
    8.9766     27.49     27.83    -25.69     17.20
    8.9868     28.75     27.85    -24.45     17.20
    8.9969     28.68     27.86    -24.54     17.20
    9.0071     27.64     27.88    -25.60     17.20
    9.0173     28.57     27.90    -24.69     17.20
    9.0274     28.84     27.92    -24.43     17.20
    9.0376     27.87     27.94    -25.42     17.20
    9.0478     28.44     27.96    -24.87     17.20
    9.0579     28.71     27.98    -24.62     17.20
    9.0681     27.85     28.00    -25.50     17.19
    9.0783     28.71     28.02    -24.66     17.19
    9.0884     28.85     28.04    -24.54     17.19
    9.0986     27.95     28.06    -25.46     17.19
    9.1088     29.50     28.08    -23.93     17.19
    9.1189     28.77     28.10    -24.68     17.19
    9.1291     28.22     28.12    -25.25     17.19
    9.1393     27.52     28.14    -25.97     17.19
    9.1494     29.01     28.16    -24.50     17.19
    9.1596     28.32     28.18    -25.21     17.19
    9.1697     28.88     28.20    -24.67     17.19
    9.1799     29.18     28.22    -24.39     17.19
    9.1901     28.87     28.24    -24.72     17.19
    9.2002     29.22     28.26    -24.39     17.19
    9.2104     29.01     28.28    -24.62     17.19
    9.2206     28.24     28.30    -25.41     17.19
    9.2307     28.09     28.32    -25.58     17.19
    9.2409     29.74     28.34    -23.95     17.19
    9.2511     28.77     28.36    -24.95     17.19
    9.2612     29.20     28.38    -24.54     17.19
    9.2714     29.23     28.40    -24.53     17.19
    9.2816     28.88     28.43    -24.90     17.19
    9.2917     29.46     28.45    -24.34     17.19
    9.3019     28.49     28.47    -25.33     17.19
    9.3120     28.57     28.49    -25.27     17.19
    9.3222     28.80     28.51    -25.06     17.19
    9.3324     29.26     28.53    -24.62     17.19
    9.3425     27.55     28.55    -26.35     17.19
    9.3527     29.30     28.57    -24.62     17.19
    9.3629     28.76     28.59    -25.19     17.19
    9.3730     28.70     28.61    -25.27     17.19
    9.3832     29.14     28.64    -24.85     17.19
    9.3934     29.23     28.66    -24.78     17.19
    9.4035     29.20     28.68    -24.83     17.19
    9.4137     30.22     28.70    -23.83     17.19
    9.4239     29.59     28.72    -24.48     17.19
    9.4340     28.68     28.74    -25.42     17.19
    9.4442     29.48     28.77    -24.64     17.19
    9.4544     29.02     28.79    -25.12     17.19
    9.4645     29.24     28.81    -24.92     17.19
    9.4747     29.73     28.83    -24.45     17.19
    9.4848     29.47     28.85    -24.74     17.19
    9.4950     28.84     28.88    -25.39     17.19
    9.5052     29.72     28.90    -24.53     17.19
    9.5153     28.84     28.92    -25.43     17.19
    9.5255     29.57     28.94    -24.72     17.19
    9.5357     30.37     28.96    -23.95     17.19
    9.5458     29.65     28.99    -24.69     17.19
    9.5560     30.13     29.01    -24.23     17.19
    9.5662     28.83     29.03    -25.55     17.19
    9.5763     29.85     29.05    -24.56     17.18
    9.5865     29.86     29.08    -24.57     17.18
    9.5967     29.80     29.10    -24.65     17.18
    9.6068     30.38     29.12    -24.09     17.18
    9.6170     30.59     29.14    -23.91     17.18
    9.6271     29.82     29.17    -24.70     17.18
    9.6373     29.49     29.19    -25.05     17.18
    9.6475     29.63     29.21    -24.94     17.18
    9.6576     30.08     29.24    -24.51     17.18
    9.6678     30.15     29.26    -24.46     17.18
    9.6780     29.27     29.28    -25.36     17.18
    9.6881     29.43     29.31    -25.23     17.18
    9.6983     29.80     29.33    -24.88     17.18
    9.7085     29.61     29.35    -25.09     17.18
    9.7186     29.68     29.38    -25.05     17.18
    9.7288     30.35     29.40    -24.40     17.18
    9.7390     30.65     29.42    -24.12     17.18
    9.7491     30.30     29.45    -24.50     17.18
    9.7593     30.08     29.47    -24.74     17.18
    9.7694     30.24     29.49    -24.61     17.18
    9.7796     30.00     29.52    -24.87     17.18
    9.7898     30.35     29.54    -24.54     17.18
    9.7999     30.75     29.57    -24.17     17.18
    9.8101     29.77     29.59    -25.17     17.18
    9.8203     29.82     29.61    -25.15     17.18
    9.8304     30.51     29.64    -24.48     17.18
    9.8406     30.26     29.66    -24.75     17.18
    9.8508     30.34     29.69    -24.70     17.18
    9.8609     30.67     29.71    -24.39     17.18
    9.8711     30.34     29.73    -24.75     17.18
    9.8813     30.98     29.76    -24.13     17.18
    9.8914     30.32     29.78    -24.82     17.18
    9.9016     30.23     29.81    -24.93     17.18
    9.9118     30.43     29.83    -24.76     17.18
    9.9219     30.07     29.86    -25.14     17.18
    9.9321     31.19     29.88    -24.04     17.18
    9.9422     30.80     29.91    -24.46     17.18
    9.9524     30.91     29.93    -24.37     17.18
    9.9626     31.05     29.96    -24.26     17.18
    9.9727     30.34     29.98    -24.99     17.18
    9.9829     30.37     30.01    -24.99     17.18
    9.9931     31.19     30.03    -24.20     17.18
   10.0032     30.91     30.06    -24.50     17.18
   10.0134     30.62     30.08    -24.82     17.18
   10.0236     30.95     30.11    -24.51     17.18
   10.0337     31.05     30.13    -24.44     17.18
   10.0439     30.54     30.16    -24.97     17.18
   10.0541     30.88     30.19    -24.66     17.18
   10.0642     30.40     30.21    -25.16     17.18
   10.0744     30.79     30.24    -24.80     17.17
   10.0845     30.93     30.26    -24.69     17.17
   10.0947     31.20     30.29    -24.44     17.17
   10.1049     31.04     30.32    -24.63     17.17
   10.1150     31.14     30.34    -24.55     17.17
   10.1252     30.07     30.37    -25.65     17.17
   10.1354     31.30     30.39    -24.45     17.17
   10.1455     31.99     30.42    -23.78     17.17
   10.1557     30.69     30.45    -25.11     17.17
   10.1659     30.55     30.47    -25.28     17.17
   10.1760     31.57     30.50    -24.28     17.17
   10.1862     31.43     30.53    -24.45     17.17
   10.1964     31.20     30.55    -24.71     17.17
   10.2065     31.14     30.58    -24.79     17.17
   10.2167     31.51     30.61    -24.45     17.17
   10.2269     30.63     30.63    -25.36     17.17
   10.2370     30.98     30.66    -25.03     17.17
   10.2472     32.47     30.69    -23.57     17.17
   10.2573     30.77     30.71    -25.30     17.17
   10.2675     31.49     30.74    -24.60     17.17
   10.2777     31.70     30.77    -24.42     17.17
   10.2878     31.51     30.80    -24.64     17.17
   10.2980     30.68     30.82    -25.50     17.17
   10.3082     31.40     30.85    -24.80     17.17
   10.3183     31.49     30.88    -24.74     17.17
   10.3285     31.90     30.91    -24.36     17.17
   10.3387     31.27     30.93    -25.02     17.17
   10.3488     31.55     30.96    -24.76     17.17
   10.3590     32.34     30.99    -24.00     17.17
   10.3692     30.98     31.02    -25.39     17.17
   10.3793     31.43     31.05    -24.97     17.17
   10.3895     32.03     31.07    -24.40     17.17
   10.3996     31.42     31.10    -25.03     17.17
   10.4098     32.07     31.13    -24.41     17.17
   10.4200     31.31     31.16    -25.20     17.17
   10.4301     31.02     31.19    -25.52     17.17
   10.4403     32.10     31.22    -24.47     17.17
   10.4505     32.52     31.25    -24.08     17.17
   10.4606     32.11     31.27    -24.52     17.17
   10.4708     30.91     31.30    -25.74     17.17
   10.4810     31.62     31.33    -25.06     17.17
   10.4911     32.02     31.36    -24.69     17.17
   10.5013     31.43     31.39    -25.31     17.17
   10.5115     32.77     31.42    -24.00     17.17
   10.5216     32.07     31.45    -24.73     17.17
   10.5318     32.77     31.48    -24.06     17.17
   10.5420     32.71     31.51    -24.15     17.17
   10.5521     32.46     31.54    -24.43     17.17
   10.5623     31.91     31.57    -25.01     17.17
   10.5724     31.93     31.59    -25.02     17.16
   10.5826     32.29     31.62    -24.69     17.16
   10.5928     31.91     31.65    -25.10     17.16
   10.6029     33.06     31.68    -23.98     17.16
   10.6131     31.22     31.71    -25.85     17.16
   10.6233     31.57     31.74    -25.53     17.16
   10.6334     31.71     31.77    -25.42     17.16
   10.6436     32.47     31.80    -24.69     17.16
   10.6538     31.52     31.83    -25.67     17.16
   10.6639     32.49     31.86    -24.73     17.16
   10.6741     31.63     31.90    -25.62     17.16
   10.6843     31.89     31.93    -25.39     17.16
   10.6944     33.05     31.96    -24.26     17.16
   10.7046     32.27     31.99    -25.07     17.16
   10.7147     32.15     32.02    -25.22     17.16
   10.7249     32.71     32.05    -24.69     17.16
   10.7351     31.65     32.08    -25.78     17.16
   10.7452     32.11     32.11    -25.35     17.16
   10.7554     32.27     32.14    -25.22     17.16
   10.7656     31.84     32.17    -25.69     17.16
   10.7757     32.47     32.20    -25.09     17.16
   10.7859     32.57     32.24    -25.02     17.16
   10.7961     31.57     32.27    -26.05     17.16
   10.8062     31.91     32.30    -25.74     17.16
   10.8164     32.52     32.33    -25.16     17.16
   10.8266     32.97     32.36    -24.74     17.16
   10.8367     32.68     32.39    -25.07     17.16
   10.8469     32.63     32.43    -25.15     17.16
   10.8571     33.45     32.46    -24.36     17.16
   10.8672     33.10     32.49    -24.74     17.16
   10.8774     32.70     32.52    -25.17     17.16
   10.8875     33.69     32.55    -24.22     17.16
   10.8977     33.48     32.59    -24.46     17.16
   10.9079     33.48     32.62    -24.49     17.16
   10.9180     33.36     32.65    -24.64     17.16
   10.9282     33.20     32.68    -24.84     17.16
   10.9384     33.39     32.72    -24.68     17.16
   10.9485     33.07     32.75    -25.03     17.16
   10.9587     33.14     32.78    -24.99     17.16
   10.9689     32.89     32.82    -25.28     17.16
   10.9790     32.91     32.85    -25.29     17.16
   10.9892     32.79     32.88    -25.44     17.16
   10.9994     33.42     32.92    -24.85     17.16
   11.0095     33.33     32.95    -24.97     17.16
   11.0197     32.77     32.98    -25.56     17.16
   11.0298     33.72     33.02    -24.65     17.16
   11.0400     33.10     33.05    -25.30     17.16
   11.0502     33.16     33.08    -25.28     17.16
   11.0603     33.35     33.12    -25.12     17.16
   11.0705     33.12     33.15    -25.38     17.15
   11.0807     33.04     33.18    -25.50     17.15
   11.0908     33.20     33.22    -25.37     17.15
   11.1010     34.26     33.25    -24.35     17.15
   11.1112     33.65     33.29    -24.99     17.15
   11.1213     32.98     33.32    -25.69     17.15
   11.1315     34.00     33.36    -24.71     17.15
   11.1417     34.12     33.39    -24.62     17.15
   11.1518     33.40     33.43    -25.38     17.15
   11.1620     34.10     33.46    -24.71     17.15
   11.1722     34.35     33.50    -24.50     17.15
   11.1823     33.97     33.53    -24.91     17.15
   11.1925     34.10     33.57    -24.82     17.15
   11.2026     34.37     33.60    -24.58     17.15
   11.2128     34.52     33.64    -24.47     17.15
   11.2230     33.28     33.67    -25.74     17.15
   11.2331     34.07     33.71    -24.99     17.15
   11.2433     33.81     33.74    -25.28     17.15
   11.2535     34.16     33.78    -24.97     17.15
   11.2636     33.83     33.81    -25.34     17.15
   11.2738     34.59     33.85    -24.61     17.15
   11.2840     33.87     33.89    -25.37     17.15
   11.2941     33.82     33.92    -25.45     17.15
   11.3043     34.37     33.96    -24.94     17.15
   11.3145     33.52     33.99    -25.83     17.15
   11.3246     33.74     34.03    -25.64     17.15
   11.3348     34.04     34.07    -25.38     17.15
   11.3449     33.88     34.10    -25.58     17.15
   11.3551     34.40     34.14    -25.09     17.15
   11.3653     33.61     34.18    -25.92     17.15
   11.3754     34.22     34.21    -25.35     17.15
   11.3856     34.16     34.25    -25.44     17.15
   11.3958     33.99     34.29    -25.65     17.15
   11.4059     34.91     34.32    -24.77     17.15
   11.4161     34.79     34.36    -24.92     17.15
   11.4263     35.68     34.40    -24.07     17.15
   11.4364     35.18     34.44    -24.61     17.15
   11.4466     34.65     34.47    -25.18     17.15
   11.4568     34.05     34.51    -25.81     17.15
   11.4669     35.20     34.55    -24.70     17.15
   11.4771     34.55     34.59    -25.39     17.15
   11.4873     35.12     34.63    -24.86     17.15
   11.4974     34.74     34.66    -25.28     17.15
   11.5076     33.64     34.70    -26.41     17.15
   11.5177     34.52     34.74    -25.57     17.15
   11.5279     35.44     34.78    -24.69     17.15
   11.5381     34.36     34.82    -25.81     17.15
   11.5482     35.77     34.86    -24.44     17.15
   11.5584     34.34     34.89    -25.91     17.15
   11.5686     34.91     34.93    -25.38     17.14
   11.5787     34.34     34.97    -25.98     17.14
   11.5889     35.20     35.01    -25.16     17.14
   11.5991     35.14     35.05    -25.26     17.14
   11.6092     35.34     35.09    -25.10     17.14
   11.6194     35.08     35.13    -25.40     17.14
   11.6296     35.16     35.17    -25.36     17.14
   11.6397     35.06     35.21    -25.50     17.14
   11.6499     35.37     35.25    -25.23     17.14
   11.6600     35.15     35.29    -25.49     17.14
   11.6702     34.92     35.33    -25.76     17.14
   11.6804     35.30     35.37    -25.42     17.14
   11.6905     35.98     35.41    -24.78     17.14
   11.7007     35.44     35.45    -25.36     17.14
   11.7109     34.57     35.49    -26.27     17.14
   11.7210     35.62     35.53    -25.26     17.14
   11.7312     36.18     35.57    -24.74     17.14
   11.7414     35.87     35.61    -25.09     17.14
   11.7515     35.63     35.65    -25.37     17.14
   11.7617     36.29     35.69    -24.75     17.14
   11.7719     35.62     35.73    -25.47     17.14
   11.7820     35.91     35.77    -25.22     17.14
   11.7922     36.38     35.82    -24.79     17.14
   11.8023     36.45     35.86    -24.76     17.14
   11.8125     36.10     35.90    -25.15     17.14
   11.8227     35.46     35.94    -25.83     17.14
   11.8328     34.57     35.98    -26.76     17.14
   11.8430     35.51     36.02    -25.87     17.14
   11.8532     35.87     36.07    -25.55     17.14
   11.8633     35.20     36.11    -26.26     17.14
   11.8735     35.66     36.15    -25.84     17.14
   11.8837     35.99     36.19    -25.55     17.14
   11.8938     36.46     36.24    -25.13     17.14
   11.9040     37.25     36.28    -24.38     17.14
   11.9142     37.30     36.32    -24.37     17.14
   11.9243     36.37     36.36    -25.35     17.14
   11.9345     36.46     36.41    -25.30     17.14
   11.9447     36.62     36.45    -25.18     17.14
   11.9548     36.53     36.49    -25.31     17.14
   11.9650     35.87     36.54    -26.02     17.14
   11.9751     36.32     36.58    -25.61     17.14
   11.9853     37.38     36.62    -24.59     17.14
   11.9955     35.95     36.67    -26.07     17.14
   12.0056     35.40     36.71    -26.66     17.14
   12.0158     36.62     36.75    -25.49     17.14
   12.0260     37.77     36.80    -24.38     17.14
   12.0361     36.41     36.84    -25.78     17.14
   12.0463     35.85     36.89    -26.39     17.14
   12.0565     36.26     36.93    -26.02     17.14
   12.0666     35.87     36.97    -26.46     17.13
   12.0768     37.83     37.02    -24.54     17.13
   12.0870     36.04     37.06    -26.38     17.13
   12.0971     37.23     37.11    -25.23     17.13
   12.1073     37.30     37.15    -25.21     17.13
   12.1174     37.51     37.20    -25.04     17.13
   12.1276     37.41     37.24    -25.19     17.13
   12.1378     36.08     37.29    -26.56     17.13
   12.1479     37.91     37.34    -24.78     17.13
   12.1581     37.17     37.38    -25.56     17.13
   12.1683     36.98     37.43    -25.80     17.13
   12.1784     37.29     37.47    -25.53     17.13
   12.1886     37.50     37.52    -25.37     17.13
   12.1988     38.26     37.56    -24.66     17.13
   12.2089     38.93     37.61    -24.03     17.13
   12.2191     36.91     37.66    -26.10     17.13
   12.2293     38.17     37.70    -24.89     17.13
   12.2394     37.85     37.75    -25.25     17.13
   12.2496     38.38     37.80    -24.77     17.13
   12.2598     37.55     37.84    -25.65     17.13
   12.2699     37.38     37.89    -25.86     17.13
   12.2801     38.41     37.94    -24.88     17.13
   12.2902     37.87     37.99    -25.47     17.13
   12.3004     37.86     38.03    -25.52     17.13
   12.3106     36.96     38.08    -26.47     17.13
   12.3207     37.71     38.13    -25.77     17.13
   12.3309     38.11     38.18    -25.42     17.13
   12.3411     37.80     38.22    -25.78     17.13
   12.3512     39.08     38.27    -24.54     17.13
   12.3614     38.49     38.32    -25.18     17.13
   12.3716     37.35     38.37    -26.37     17.13
   12.3817     38.18     38.42    -25.59     17.13
   12.3919     39.18     38.47    -24.64     17.13
   12.4021     38.18     38.51    -25.69     17.13
   12.4122     38.95     38.56    -24.96     17.13
   12.4224     38.57     38.61    -25.39     17.13
   12.4325     39.12     38.66    -24.89     17.13
   12.4427     39.13     38.71    -24.93     17.13
   12.4529     38.40     38.76    -25.71     17.13
   12.4630     38.97     38.81    -25.19     17.13
   12.4732     39.41     38.86    -24.80     17.13
   12.4834     40.37     38.91    -23.89     17.13
   12.4935     39.67     38.96    -24.64     17.13
   12.5037     38.15     39.01    -26.21     17.13
   12.5139     39.12     39.06    -25.29     17.13
   12.5240     38.83     39.11    -25.63     17.13
   12.5342     38.95     39.16    -25.56     17.13
   12.5444     39.41     39.21    -25.15     17.13
   12.5545     38.57     39.26    -26.04     17.13
   12.5647     39.63     39.31    -25.03     17.12
   12.5749     39.04     39.36    -25.68     17.12
   12.5850     39.64     39.41    -25.13     17.12
   12.5952     39.31     39.47    -25.51     17.12
   12.6053     39.15     39.52    -25.72     17.12
   12.6155     39.90     39.57    -25.02     17.12
   12.6257     39.60     39.62    -25.37     17.12
   12.6358     38.65     39.67    -26.37     17.12
   12.6460     39.46     39.73    -25.62     17.12
   12.6562     40.06     39.78    -25.07     17.12
   12.6663     38.88     39.83    -26.30     17.12
   12.6765     40.16     39.88    -25.07     17.12
   12.6867     40.38     39.94    -24.91     17.12
   12.6968     39.85     39.99    -25.49     17.12
   12.7070     39.92     40.04    -25.47     17.12
   12.7172     39.71     40.09    -25.74     17.12
   12.7273     40.26     40.15    -25.24     17.12
   12.7375     40.09     40.20    -25.46     17.12
   12.7476     40.53     40.25    -25.08     17.12
   12.7578     40.15     40.31    -25.51     17.12
   12.7680     40.03     40.36    -25.68     17.12
   12.7781     39.82     40.42    -25.95     17.12
   12.7883     39.98     40.47    -25.84     17.12
   12.7985     39.87     40.52    -26.01     17.12
   12.8086     40.00     40.58    -25.93     17.12
   12.8188     40.96     40.63    -25.03     17.12
   12.8290     40.93     40.69    -25.11     17.12
   12.8391     40.74     40.74    -25.36     17.12
   12.8493     42.01     40.80    -24.14     17.12
   12.8595     40.08     40.85    -26.13     17.12
   12.8696     40.11     40.91    -26.15     17.12
   12.8798     40.54     40.97    -25.78     17.12
   12.8900     40.33     41.02    -26.04     17.12
   12.9001     40.66     41.08    -25.77     17.12
   12.9103     41.12     41.13    -25.37     17.12
   12.9204     40.02     41.19    -26.52     17.12
   12.9306     40.27     41.25    -26.33     17.12
   12.9408     41.18     41.30    -25.47     17.12
   12.9509     40.53     41.36    -26.18     17.12
   12.9611     40.60     41.42    -26.17     17.12
   12.9713     40.75     41.47    -26.08     17.12
   12.9814     41.95     41.53    -24.93     17.12
   12.9916     41.44     41.59    -25.50     17.12
   13.0018     41.87     41.65    -25.13     17.12
   13.0119     42.13     41.70    -24.92     17.12
   13.0221     42.24     41.76    -24.87     17.12
   13.0323     41.65     41.82    -25.52     17.12
   13.0424     42.71     41.88    -24.52     17.12
   13.0526     41.51     41.94    -25.78     17.12
   13.0627     42.81     41.99    -24.54     17.11
   13.0729     42.20     42.05    -25.20     17.11
   13.0831     42.80     42.11    -24.66     17.11
   13.0932     42.52     42.17    -25.00     17.11
   13.1034     42.64     42.23    -24.94     17.11
   13.1136     43.51     42.29    -24.13     17.11
   13.1237     42.77     42.35    -24.93     17.11
   13.1339     42.38     42.41    -25.38     17.11
   13.1441     42.60     42.47    -25.22     17.11
   13.1542     42.52     42.53    -25.36     17.11
   13.1644     43.68     42.59    -24.26     17.11
   13.1746     42.16     42.65    -25.84     17.11
   13.1847     43.47     42.71    -24.59     17.11
   13.1949     43.51     42.77    -24.61     17.11
   13.2051     43.82     42.83    -24.37     17.11
   13.2152     43.03     42.89    -25.22     17.11
   13.2254     43.41     42.96    -24.90     17.11
   13.2355     44.18     43.02    -24.19     17.11
   13.2457     43.68     43.08    -24.75     17.11
   13.2559     43.34     43.14    -25.15     17.11
   13.2660     43.70     43.20    -24.85     17.11
   13.2762     43.16     43.27    -25.46     17.11
   13.2864     42.62     43.33    -26.06     17.11
   13.2965     42.88     43.39    -25.86     17.11
   13.3067     43.35     43.45    -25.46     17.11
   13.3169     44.15     43.52    -24.72     17.11
   13.3270     44.76     43.58    -24.17     17.11
   13.3372     43.26     43.64    -25.74     17.11
   13.3474     43.79     43.71    -25.27     17.11
   13.3575     44.26     43.77    -24.86     17.11
   13.3677     44.32     43.84    -24.87     17.11
   13.3778     44.73     43.90    -24.52     17.11
   13.3880     43.95     43.96    -25.37     17.11
   13.3982     44.77     44.03    -24.61     17.11
   13.4083     44.52     44.09    -24.93     17.11
   13.4185     44.71     44.16    -24.80     17.11
   13.4287     45.10     44.22    -24.48     17.11
   13.4388     43.59     44.29    -26.05     17.11
   13.4490     44.47     44.36    -25.24     17.11
   13.4592     44.29     44.42    -25.48     17.11
   13.4693     46.02     44.49    -23.82     17.11
   13.4795     45.29     44.55    -24.62     17.11
   13.4897     44.52     44.62    -25.45     17.11
   13.4998     44.76     44.69    -25.28     17.11
   13.5100     45.34     44.75    -24.77     17.11
   13.5201     45.27     44.82    -24.90     17.11
   13.5303     46.32     44.89    -23.92     17.11
   13.5405     45.64     44.96    -24.67     17.11
   13.5506     45.07     45.02    -25.31     17.11
   13.5608     45.23     45.09    -25.21     17.11
   13.5710     45.27     45.16    -25.24     17.10
   13.5811     45.15     45.23    -25.43     17.10
   13.5913     45.33     45.30    -25.32     17.10
   13.6015     44.77     45.37    -25.95     17.10
   13.6116     45.36     45.44    -25.43     17.10
   13.6218     46.09     45.51    -24.77     17.10
   13.6320     46.11     45.58    -24.82     17.10
   13.6421     46.87     45.65    -24.13     17.10
   13.6523     46.22     45.72    -24.85     17.10
   13.6625     46.30     45.79    -24.84     17.10
   13.6726     46.12     45.86    -25.09     17.10
   13.6828     47.42     45.93    -23.86     17.10
   13.6929     45.69     46.00    -25.66     17.10
   13.7031     45.84     46.07    -25.58     17.10
   13.7133     47.99     46.14    -23.50     17.10
   13.7234     46.26     46.21    -25.31     17.10
   13.7336     46.99     46.29    -24.65     17.10
   13.7438     48.60     46.36    -23.11     17.10
   13.7539     46.55     46.43    -25.23     17.10
   13.7641     47.56     46.50    -24.30     17.10
   13.7743     47.97     46.58    -23.96     17.10
   13.7844     47.87     46.65    -24.13     17.10
   13.7946     46.82     46.72    -25.26     17.10
   13.8048     47.90     46.80    -24.25     17.10
   13.8149     46.62     46.87    -25.60     17.10
   13.8251     47.30     46.95    -25.00     17.10
   13.8352     48.46     47.02    -23.91     17.10
   13.8454     46.44     47.10    -26.01     17.10
   13.8556     48.32     47.17    -24.20     17.10
   13.8657     47.85     47.25    -24.75     17.10
   13.8759     48.23     47.32    -24.44     17.10
   13.8861     48.73     47.40    -24.02     17.10
   13.8962     48.70     47.47    -24.13     17.10
   13.9064     48.18     47.55    -24.72     17.10
   13.9166     48.37     47.63    -24.61     17.10
   13.9267     50.07     47.71    -22.99     17.10
   13.9369     49.48     47.78    -23.66     17.10
   13.9471     49.30     47.86    -23.91     17.10
   13.9572     48.95     47.94    -24.34     17.10
   13.9674     48.74     48.02    -24.63     17.10
   13.9776     48.96     48.10    -24.49     17.10
   13.9877     48.97     48.18    -24.56     17.10
   13.9979     49.79     48.25    -23.82     17.10
   14.0080     49.16     48.33    -24.53     17.10
   14.0182     49.27     48.41    -24.50     17.10
   14.0284     49.84     48.49    -24.01     17.10
   14.0385     49.41     48.57    -24.52     17.10
   14.0487     49.79     48.66    -24.22     17.10
   14.0589     50.56     48.74    -23.53     17.10
   14.0690     49.61     48.82    -24.56     17.09
   14.0792     50.52     48.90    -23.73     17.09
   14.0894     49.82     48.98    -24.52     17.09
   14.0995     50.13     49.07    -24.29     17.09
   14.1097     50.37     49.15    -24.13     17.09
   14.1199     50.46     49.23    -24.12     17.09
   14.1300     51.04     49.31    -23.63     17.09
   14.1402     50.00     49.40    -24.75     17.09
   14.1503     50.70     49.48    -24.13     17.09
   14.1605     51.02     49.57    -23.90     17.09
   14.1707     51.05     49.65    -23.95     17.09
   14.1808     50.82     49.74    -24.27     17.09
   14.1910     51.18     49.82    -24.00     17.09
   14.2012     52.21     49.91    -23.05     17.09
   14.2113     50.49     50.00    -24.86     17.09
   14.2215     51.24     50.08    -24.19     17.09
   14.2317     51.45     50.17    -24.07     17.09
   14.2418     51.84     50.26    -23.77     17.09
   14.2520     51.99     50.35    -23.71     17.09
   14.2622     51.69     50.43    -24.10     17.09
   14.2723     52.09     50.52    -23.78     17.09
   14.2825     51.55     50.61    -24.41     17.09
   14.2927     50.74     50.70    -25.31     17.09
   14.3028     52.40     50.79    -23.74     17.09
   14.3130     51.73     50.88    -24.50     17.09
   14.3231     52.67     50.97    -23.65     17.09
   14.3333     52.08     51.06    -24.33     17.09
   14.3435     53.31     51.15    -23.20     17.09
   14.3536     52.04     51.25    -24.56     17.09
   14.3638     53.58     51.34    -23.11     17.09
   14.3740     54.31     51.43    -22.47     17.09
   14.3841     52.59     51.52    -24.29     17.09
   14.3943     52.02     51.62    -24.95     17.09
   14.4045     53.23     51.71    -23.83     17.09
   14.4146     54.29     51.81    -22.87     17.09
   14.4248     53.74     51.90    -23.51     17.09
   14.4350     53.31     52.00    -24.04     17.09
   14.4451     52.86     52.09    -24.58     17.09
   14.4553     53.26     52.19    -24.28     17.09
   14.4654     53.40     52.28    -24.24     17.09
   14.4756     54.83     52.38    -22.90     17.09
   14.4858     53.73     52.48    -24.10     17.09
   14.4959     53.85     52.58    -24.08     17.09
   14.5061     53.63     52.68    -24.40     17.09
   14.5163     54.89     52.78    -23.24     17.09
   14.5264     53.79     52.87    -24.44     17.09
   14.5366     55.77     52.97    -22.56     17.09
   14.5468     54.68     53.08    -23.75     17.09
   14.5569     55.49     53.18    -23.04     17.09
   14.5671     54.69     53.28    -23.94     17.08
   14.5773     55.42     53.38    -23.31     17.08
   14.5874     55.40     53.48    -23.43     17.08
   14.5976     55.33     53.59    -23.61     17.08
   14.6078     54.62     53.69    -24.42     17.08
   14.6179     54.91     53.79    -24.23     17.08
   14.6281     55.70     53.90    -23.55     17.08
   14.6382     54.99     54.00    -24.36     17.08
   14.6484     55.84     54.11    -23.62     17.08
   14.6586     56.27     54.21    -23.30     17.08
   14.6687     54.99     54.32    -24.68     17.08
   14.6789     56.62     54.43    -23.16     17.08
   14.6891     56.20     54.54    -23.69     17.08
   14.6992     55.48     54.64    -24.52     17.08
   14.7094     56.96     54.75    -23.15     17.08
   14.7196     56.75     54.86    -23.47     17.08
   14.7297     56.57     54.97    -23.75     17.08
   14.7399     57.59     55.08    -22.85     17.08
   14.7501     58.09     55.20    -22.46     17.08
   14.7602     57.54     55.31    -23.12     17.08
   14.7704     56.89     55.42    -23.88     17.08
   14.7805     57.05     55.53    -23.83     17.08
   14.7907     56.38     55.65    -24.62     17.08
   14.8009     57.50     55.76    -23.61     17.08
   14.8110     58.12     55.87    -23.11     17.08
   14.8212     59.09     55.99    -22.25     17.08
   14.8314     56.93     56.11    -24.53     17.08
   14.8415     58.44     56.22    -23.13     17.08
   14.8517     57.77     56.34    -23.92     17.08
   14.8619     58.30     56.46    -23.51     17.08
   14.8720     59.99     56.58    -21.94     17.08
   14.8822     57.40     56.70    -24.65     17.08
   14.8924     59.69     56.82    -22.48     17.08
   14.9025     59.37     56.94    -22.92     17.08
   14.9127     59.18     57.06    -23.23     17.08
   14.9229     59.28     57.18    -23.25     17.08
   14.9330     60.34     57.30    -22.31     17.08
   14.9432     59.75     57.43    -23.03     17.08
   14.9533     59.59     57.55    -23.31     17.08
   14.9635     60.26     57.67    -22.77     17.08
   14.9737     59.78     57.80    -23.37     17.08
   14.9838     60.29     57.92    -22.99     17.08
   14.9940     59.70     58.05    -23.70     17.08
   15.0042     59.74     58.18    -23.79     17.08
   15.0143     59.82     58.31    -23.84     17.08
   15.0245     60.50     58.44    -23.29     17.08
   15.0347     59.73     58.57    -24.19     17.08
   15.0448     59.93     58.70    -24.12     17.08
   15.0550     60.92     58.83    -23.26     17.08
   15.0652     60.65     58.96    -23.66     17.07
   15.0753     60.58     59.09    -23.86     17.07
   15.0855     62.59     59.22    -21.99     17.07
   15.0956     60.68     59.36    -24.03     17.07
   15.1058     61.34     59.49    -23.50     17.07
   15.1160     61.94     59.63    -23.04     17.07
   15.1261     60.70     59.76    -24.41     17.07
   15.1363     62.97     59.90    -22.28     17.07
   15.1465     62.54     60.04    -22.85     17.07
   15.1566     62.55     60.18    -22.98     17.07
   15.1668     62.62     60.32    -23.05     17.07
   15.1770     62.77     60.46    -23.04     17.07
   15.1871     62.84     60.60    -23.11     17.07
   15.1973     63.28     60.74    -22.81     17.07
   15.2075     62.90     60.88    -23.33     17.07
   15.2176     62.50     61.02    -23.87     17.07
   15.2278     63.91     61.17    -22.61     17.07
   15.2380     63.10     61.31    -23.56     17.07
   15.2481     63.20     61.46    -23.61     17.07
   15.2583     64.38     61.60    -22.57     17.07
   15.2684     63.49     61.75    -23.61     17.07
   15.2786     64.79     61.90    -22.46     17.07
   15.2888     64.57     62.05    -22.83     17.07
   15.2989     63.71     62.20    -23.84     17.07
   15.3091     63.27     62.35    -24.43     17.07
   15.3193     65.16     62.50    -22.69     17.07
   15.3294     64.34     62.65    -23.66     17.07
   15.3396     64.90     62.80    -23.25     17.07
   15.3498     65.18     62.96    -23.13     17.07
   15.3599     65.20     63.11    -23.26     17.07
   15.3701     65.45     63.27    -23.17     17.07
   15.3803     65.52     63.42    -23.25     17.07
   15.3904     64.93     63.58    -24.00     17.07
   15.4006     65.74     63.74    -23.35     17.07
   15.4107     65.49     63.89    -23.76     17.07
   15.4209     65.60     64.06    -23.81     17.07
   15.4311     66.41     64.22    -23.16     17.07
   15.4412     67.31     64.38    -22.42     17.07
   15.4514     65.51     64.54    -24.38     17.07
   15.4616     65.60     64.70    -24.45     17.07
   15.4717     67.04     64.87    -23.18     17.07
   15.4819     67.22     65.03    -23.16     17.07
   15.4921     66.66     65.20    -23.89     17.07
   15.5022     66.19     65.36    -24.53     17.07
   15.5124     67.07     65.53    -23.81     17.07
   15.5226     68.03     65.70    -23.02     17.07
   15.5327     68.37     65.87    -22.85     17.07
   15.5429     68.32     66.04    -23.07     17.07
   15.5530     67.38     66.21    -24.18     17.07
   15.5632     68.40     66.38    -23.33     17.06
   15.5734     68.20     66.55    -23.71     17.06
   15.5835     68.30     66.73    -23.78     17.06
   15.5937     68.09     66.90    -24.16     17.06
   15.6039     68.56     67.08    -23.87     17.06
   15.6140     68.72     67.25    -23.88     17.06
   15.6242     69.79     67.43    -22.99     17.06
   15.6344     68.20     67.61    -24.76     17.06
   15.6445     68.77     67.79    -24.37     17.06
   15.6547     69.91     67.97    -23.41     17.06
   15.6649     70.09     68.15    -23.41     17.06
   15.6750     70.84     68.33    -22.84     17.06
   15.6852     69.66     68.51    -24.20     17.06
   15.6954     70.30     68.70    -23.75     17.06
   15.7055     69.74     68.88    -24.49     17.06
   15.7157     69.81     69.06    -24.61     17.06
   15.7258     70.37     69.25    -24.23     17.06
   15.7360     70.18     69.44    -24.61     17.06
   15.7462     71.23     69.62    -23.75     17.06
   15.7563     70.28     69.81    -24.88     17.06
   15.7665     71.46     70.00    -23.89     17.06
   15.7767     70.29     70.19    -25.25     17.06
   15.7868     70.98     70.38    -24.75     17.06
   15.7970     70.69     70.57    -25.24     17.06
   15.8072     73.11     70.77    -23.01     17.06
   15.8173     71.51     70.96    -24.80     17.06
   15.8275     72.21     71.15    -24.30     17.06
   15.8377     73.16     71.35    -23.54     17.06
   15.8478     72.38     71.54    -24.52     17.06
   15.8580     72.32     71.74    -24.77     17.06
   15.8681     72.47     71.94    -24.82     17.06
   15.8783     73.24     72.14    -24.25     17.06
   15.8885     71.93     72.33    -25.76     17.06
   15.8986     72.26     72.53    -25.62     17.06
   15.9088     73.21     72.73    -24.88     17.06
   15.9190     73.82     72.94    -24.47     17.06
   15.9291     73.12     73.14    -25.37     17.06
   15.9393     74.03     73.34    -24.66     17.06
   15.9495     73.98     73.54    -24.91     17.06
   15.9596     75.72     73.75    -23.38     17.06
   15.9698     74.46     73.95    -24.84     17.06
   15.9800     74.50     74.16    -25.01     17.06
   15.9901     74.26     74.36    -25.45     17.06
   16.0003     74.79     74.57    -25.13     17.06
   16.0105     73.96     74.78    -26.17     17.06
   16.0206     74.55     74.98    -25.78     17.06
   16.0308     74.79     75.19    -25.75     17.06
   16.0409     74.60     75.40    -26.15     17.06
   16.0511     75.48     75.61    -25.48     17.06
   16.0613     76.04     75.82    -25.13     17.05
   16.0714     76.52     76.03    -24.86     17.05
   16.0816     76.91     76.24    -24.68     17.05
   16.0918     76.88     76.45    -24.92     17.05
   16.1019     76.84     76.66    -25.17     17.05
   16.1121     75.30     76.88    -26.93     17.05
   16.1223     75.90     77.09    -26.54     17.05
   16.1324     77.52     77.30    -25.13     17.05
   16.1426     78.55     77.52    -24.32     17.05
   16.1528     76.51     77.73    -26.57     17.05
   16.1629     77.07     77.94    -26.22     17.05
   16.1731     77.86     78.16    -25.65     17.05
   16.1832     76.94     78.37    -26.78     17.05
   16.1934     77.71     78.59    -26.23     17.05
   16.2036     78.65     78.80    -25.50     17.05
   16.2137     79.54     79.02    -24.83     17.05
   16.2239     79.13     79.23    -25.46     17.05
   16.2341     78.71     79.45    -26.09     17.05
   16.2442     79.19     79.66    -25.83     17.05
   16.2544     78.50     79.88    -26.73     17.05
   16.2646     79.85     80.10    -25.60     17.05
   16.2747     79.95     80.31    -25.71     17.05
   16.2849     79.04     80.53    -26.84     17.05
   16.2951     79.92     80.75    -26.18     17.05
   16.3052     80.04     80.96    -26.27     17.05
   16.3154     79.77     81.18    -26.76     17.05
   16.3256     79.52     81.39    -27.22     17.05
   16.3357     81.38     81.61    -25.58     17.05
   16.3459     81.52     81.82    -25.65     17.05
   16.3560     81.57     82.04    -25.82     17.05
   16.3662     81.92     82.25    -25.68     17.05
   16.3764     80.48     82.47    -27.34     17.05
   16.3865     82.77     82.68    -25.26     17.05
   16.3967     80.73     82.89    -27.51     17.05
   16.4069     82.25     83.11    -26.21     17.05
   16.4170     82.33     83.32    -26.34     17.05
   16.4272     82.27     83.53    -26.61     17.05
   16.4374     84.27     83.74    -24.82     17.05
   16.4475     82.81     83.95    -26.49     17.05
   16.4577     82.03     84.16    -27.49     17.05
   16.4679     83.42     84.37    -26.31     17.05
   16.4780     83.95     84.58    -25.98     17.05
   16.4882     84.66     84.79    -25.48     17.05
   16.4983     83.05     85.00    -27.30     17.05
   16.5085     85.12     85.20    -25.44     17.05
   16.5187     83.32     85.41    -27.44     17.05
   16.5288     82.95     85.61    -28.02     17.05
   16.5390     85.88     85.82    -25.29     17.05
   16.5492     83.61     86.02    -27.76     17.05
   16.5593     84.21     86.22    -27.36     17.04
   16.5695     84.50     86.42    -27.28     17.04
   16.5797     85.57     86.62    -26.41     17.04
   16.5898     85.44     86.82    -26.73     17.04
   16.6000     84.18     87.02    -28.19     17.04
   16.6102     85.40     87.22    -27.17     17.04
   16.6203     87.45     87.41    -25.31     17.04
   16.6305     86.84     87.60    -26.12     17.04
   16.6407     87.65     87.80    -25.50     17.04
   16.6508     86.98     87.99    -26.36     17.04
   16.6610     86.18     88.18    -27.35     17.04
   16.6711     87.05     88.36    -26.67     17.04
   16.6813     87.70     88.55    -26.20     17.04
   16.6915     87.95     88.74    -26.14     17.04
   16.7016     87.93     88.92    -26.34     17.04
   16.7118     87.92     89.10    -26.54     17.04
   16.7220     89.27     89.29    -25.37     17.04
   16.7321     87.90     89.46    -26.92     17.04
   16.7423     89.71     89.64    -25.29     17.04
   16.7525     90.79     89.82    -24.38     17.04
   16.7626     88.58     89.99    -26.77     17.04
   16.7728     89.63     90.17    -25.89     17.04
   16.7830     89.71     90.34    -25.98     17.04
   16.7931     90.60     90.51    -25.26     17.04
   16.8033     90.37     90.68    -25.66     17.04
   16.8134     91.68     90.84    -24.52     17.04
   16.8236     89.95     91.01    -26.41     17.04
   16.8338     90.95     91.17    -25.58     17.04
   16.8439     91.38     91.33    -25.31     17.04
   16.8541     91.59     91.50    -25.26     17.04
   16.8643     90.43     91.65    -26.58     17.04
   16.8744     92.86     91.81    -24.30     17.04
   16.8846     92.02     91.97    -25.30     17.04
   16.8948     92.91     92.12    -24.56     17.04
   16.9049     93.12     92.27    -24.50     17.04
   16.9151     92.48     92.42    -25.30     17.04
   16.9253     93.09     92.57    -24.84     17.04
   16.9354     94.43     92.72    -23.64     17.04
   16.9456     92.68     92.87    -25.54     17.04
   16.9558     92.84     93.01    -25.52     17.04
   16.9659     94.71     93.16    -23.80     17.04
   16.9761     94.04     93.30    -24.61     17.04
   16.9862     93.62     93.44    -25.17     17.04
   16.9964     94.60     93.58    -24.33     17.04
   17.0066     93.75     93.72    -25.32     17.04
   17.0167     94.07     93.85    -25.13     17.04
   17.0269     95.74     93.99    -23.60     17.04
   17.0371     95.71     94.12    -23.77     17.04
   17.0472     96.41     94.26    -23.20     17.04
   17.0574     96.11     94.39    -23.63     17.03
   17.0676     94.16     94.52    -25.71     17.03
   17.0777     94.71     94.65    -25.29     17.03
   17.0879     95.87     94.78    -24.26     17.03
   17.0981     94.90     94.91    -25.36     17.03
   17.1082     97.09     95.04    -23.30     17.03
   17.1184     96.17     95.17    -24.35     17.03
   17.1285     95.58     95.29    -25.06     17.03
   17.1387     97.01     95.42    -23.76     17.03
   17.1489     97.68     95.55    -23.22     17.03
   17.1590     96.12     95.67    -24.90     17.03
   17.1692     97.72     95.80    -23.43     17.03
   17.1794     97.38     95.92    -23.90     17.03
   17.1895     95.95     96.05    -25.45     17.03
   17.1997     96.26     96.17    -25.27     17.03
   17.2099     99.60     96.30    -22.05     17.03
   17.2200     98.08     96.42    -23.70     17.03
   17.2302     97.35     96.55    -24.55     17.03
   17.2404     98.49     96.68    -23.54     17.03
   17.2505     95.99     96.80    -26.16     17.03
   17.2607     97.80     96.93    -24.48     17.03
   17.2709    100.02     97.06    -22.39     17.03
   17.2810     99.01     97.18    -23.53     17.03
   17.2912     99.86     97.31    -22.81     17.03
   17.3013     98.16     97.44    -24.64     17.03
   17.3115     99.50     97.58    -23.43     17.03
   17.3217    100.68     97.71    -22.38     17.03
   17.3318    100.30     97.84    -22.89     17.03
   17.3420     99.95     97.98    -23.38     17.03
   17.3522    100.92     98.12    -22.55     17.03
   17.3623     99.71     98.25    -23.90     17.03
   17.3725     98.29     98.39    -25.46     17.03
   17.3827    102.03     98.54    -21.86     17.03
   17.3928    101.06     98.68    -22.97     17.03
   17.4030     99.68     98.83    -24.50     17.03
   17.4132    102.48     98.98    -21.85     17.03
   17.4233    102.08     99.13    -22.40     17.03
   17.4335    101.91     99.29    -22.73     17.03
   17.4436    102.21     99.44    -22.58     17.03
   17.4538    103.15     99.60    -21.81     17.03
   17.4640    103.32     99.77    -21.80     17.03
   17.4741    102.70     99.94    -22.59     17.03
   17.4843    103.70    100.11    -21.76     17.03
   17.4945    104.08    100.28    -21.56     17.03
   17.5046    102.04    100.46    -23.77     17.03
   17.5148    104.66    100.65    -21.34     17.03
   17.5250    103.84    100.84    -22.35     17.03
   17.5351    102.88    101.03    -23.50     17.03
   17.5453    105.74    101.23    -20.84     17.03
   17.5555    105.06    101.43    -21.72     17.03
   17.5656    106.24    101.64    -20.75     17.02
   17.5758    105.09    101.85    -22.12     17.02
   17.5859    106.45    102.07    -20.98     17.02
   17.5961    106.56    102.30    -21.09     17.02
   17.6063    107.52    102.54    -20.37     17.02
   17.6164    107.56    102.78    -20.57     17.02
   17.6266    105.74    103.03    -22.64     17.02
   17.6368    107.68    103.28    -20.95     17.02
   17.6469    107.49    103.54    -21.41     17.02
   17.6571    107.51    103.82    -21.66     17.02
   17.6673    108.08    104.10    -21.37     17.02
   17.6774    106.95    104.39    -22.79     17.02
   17.6876    108.16    104.69    -21.88     17.02
   17.6978    110.79    105.00    -19.56     17.02
   17.7079    107.51    105.32    -23.16     17.02
   17.7181    111.26    105.65    -19.74     17.02
   17.7283    112.08    106.00    -19.27     17.02
   17.7384    110.21    106.35    -21.49     17.02
   17.7486    112.55    106.72    -19.52     17.02
   17.7587    113.00    107.10    -19.45     17.02
   17.7689    112.31    107.49    -20.53     17.02
   17.7791    113.47    107.90    -19.78     17.02
   17.7892    113.30    108.32    -20.37     17.02
   17.7994    112.12    108.76    -21.99     17.02
   17.8096    114.68    109.22    -19.89     17.02
   17.8197    114.86    109.69    -20.18     17.02
   17.8299    114.20    110.18    -21.33     17.02
   17.8401    115.46    110.68    -20.58     17.02
   17.8502    117.30    111.21    -19.26     17.02
   17.8604    115.55    111.75    -21.55     17.02
   17.8706    115.36    112.32    -22.31     17.02
   17.8807    117.51    112.90    -20.74     17.02
   17.8909    118.58    113.51    -20.29     17.02
   17.9010    120.05    114.14    -19.44     17.02
   17.9112    119.35    114.80    -20.80     17.02
   17.9214    121.40    115.48    -19.43     17.02
   17.9315    119.40    116.18    -22.13     17.02
   17.9417    122.29    116.91    -19.97     17.02
   17.9519    123.70    117.67    -19.32     17.02
   17.9620    121.87    118.45    -21.93     17.02
   17.9722    124.47    119.27    -20.15     17.02
   17.9824    124.10    120.11    -21.37     17.02
   17.9925    125.69    120.98    -20.65     17.02
   18.0027    127.00    121.89    -20.25     17.02
   18.0129    126.63    122.84    -21.56     17.02
   18.0230    127.49    123.80    -21.66     17.02
   18.0332    129.12    124.81    -21.04     17.02
   18.0434    127.79    125.86    -23.42     17.02
   18.0535    129.12    126.93    -23.16     17.02
   18.0637    131.78    128.05    -21.62     17.01
   18.0738    131.54    129.20    -23.01     17.01
   18.0840    133.30    130.40    -22.45     17.01
   18.0942    132.89    131.64    -24.10     17.01
   18.1043    133.21    132.90    -25.04     17.01
   18.1145    135.30    134.22    -24.28     17.01
   18.1247    136.77    135.59    -24.17     17.01
   18.1348    137.10    136.98    -25.24     17.01
   18.1450    137.07    138.44    -26.72     17.01
   18.1552    139.41    139.94    -25.88     17.01
   18.1653    140.81    141.47    -26.01     17.01
   18.1755    142.91    143.06    -25.50     17.01
   18.1857    144.40    144.70    -25.65     17.01
   18.1958    146.18    146.37    -25.54     17.01
   18.2060    145.41    148.10    -28.04     17.01
   18.2161    151.07    149.87    -24.15     17.01
   18.2263    148.90    151.70    -28.15     17.01
   18.2365    150.36    153.58    -28.58     17.01
   18.2466    154.20    155.50    -26.65     17.01
   18.2568    156.21    157.48    -26.62     17.01
   18.2670    155.52    159.51    -29.35     17.01
   18.2771    158.67    161.58    -28.26     17.01
   18.2873    159.24    163.71    -29.82     17.01
   18.2975    162.07    165.89    -29.17     17.01
   18.3076    165.70    168.10    -27.75     17.01
   18.3178    167.06    170.38    -28.67     17.01
   18.3280    168.18    172.70    -29.87     17.01
   18.3381    172.15    175.05    -28.25     17.01
   18.3483    172.98    177.47    -29.84     17.01
   18.3585    174.01    179.93    -31.27     17.01
   18.3686    178.03    182.40    -29.72     17.01
   18.3788    180.27    184.94    -30.03     17.01
   18.3889    181.73    187.50    -31.12     17.01
   18.3991    187.24    190.11    -28.22     17.01
   18.4093    188.99    192.75    -29.12     17.01
   18.4194    188.60    195.40    -32.15     17.01
   18.4296    195.69    198.10    -27.76     17.01
   18.4398    197.83    200.82    -28.34     17.01
   18.4499    199.21    203.53    -29.67     17.01
   18.4601    202.08    206.27    -29.54     17.01
   18.4703    203.95    209.02    -30.43     17.01
   18.4804    206.20    211.75    -30.90     17.01
   18.4906    211.85    214.50    -28.00     17.01
   18.5008    217.55    217.23    -25.03     17.01
   18.5109    215.62    219.91    -29.65     17.01
   18.5211    221.30    222.60    -26.65     17.01
   18.5312    223.95    225.22    -26.63     17.01
   18.5414    225.15    227.83    -28.03     17.01
   18.5516    231.02    230.38    -24.71     17.01
   18.5617    232.96    232.84    -25.23     17.00
   18.5719    233.26    235.26    -27.35     17.00
   18.5821    235.59    237.59    -27.35     17.00
   18.5922    240.12    239.80    -25.04     17.00
   18.6024    242.91    241.94    -24.38     17.00
   18.6126    246.33    243.96    -22.98     17.00
   18.6227    244.99    245.84    -26.21     17.00
   18.6329    248.73    247.61    -24.23     17.00
   18.6431    251.52    249.23    -23.07     17.00
   18.6532    253.07    250.69    -22.97     17.00
   18.6634    255.33    252.00    -22.03     17.00
   18.6736    258.27    253.15    -20.23     17.00
   18.6837    257.79    254.11    -21.67     17.00
   18.6939    258.18    254.90    -22.08     17.00
   18.7040    259.37    255.50    -21.49     17.00
   18.7142    260.68    255.92    -20.60     17.00
   18.7244    260.06    256.15    -21.45     17.00
   18.7345    261.16    256.19    -20.38     17.00
   18.7447    259.03    256.04    -22.36     17.00
   18.7549    259.45    255.69    -21.59     17.00
   18.7650    259.68    255.16    -20.84     17.00
   18.7752    260.30    254.45    -19.50     17.00
   18.7854    255.94    253.55    -22.96     17.00
   18.7955    257.58    252.49    -20.26     17.00
   18.8057    256.24    251.26    -20.37     17.00
   18.8159    253.68    249.86    -21.53     17.00
   18.8260    256.87    248.33    -16.81     17.00
   18.8362    252.96    246.65    -19.04     17.00
   18.8463    249.76    244.85    -20.44     17.00
   18.8565    245.29    242.91    -22.97     17.00
   18.8667    242.64    240.86    -23.57     17.00
   18.8768    238.64    238.73    -25.44     17.00
   18.8870    239.08    236.48    -22.75     17.00
   18.8972    233.19    234.15    -26.32     17.00
   18.9073    230.80    231.78    -26.33     17.00
   18.9175    227.18    229.32    -27.49     17.00
   18.9277    227.62    226.81    -24.54     17.00
   18.9378    223.16    224.28    -26.47     17.00
   18.9480    223.21    221.69    -23.83     17.00
   18.9582    218.13    219.07    -26.30     17.00
   18.9683    213.44    216.46    -28.38     17.00
   18.9785    213.70    213.82    -25.47     17.00
   18.9887    210.04    211.16    -26.48     17.00
   18.9988    205.34    208.54    -28.55     17.00
   19.0090    205.06    205.90    -26.19     17.00
   19.0191    202.48    203.29    -26.16     17.00
   19.0293    194.88    200.68    -31.15     17.00
   19.0395    196.55    198.09    -26.89     17.00
   19.0496    192.30    195.55    -28.60     17.00
   19.0598    188.94    193.01    -29.42     16.99
   19.0700    187.78    190.51    -28.08     16.99
   19.0801    183.31    188.07    -30.11     16.99
   19.0903    182.44    185.64    -28.55     16.99
   19.1005    177.29    183.25    -31.31     16.99
   19.1106    177.15    180.93    -29.13     16.99
   19.1208    173.68    178.63    -30.30     16.99
   19.1310    173.02    176.38    -28.71     16.99
   19.1411    170.33    174.19    -29.21     16.99
   19.1513    165.95    172.03    -31.44     16.99
   19.1614    165.12    169.95    -30.18     16.99
   19.1716    162.99    167.89    -30.25     16.99
   19.1818    161.37    165.88    -29.86     16.99
   19.1919    161.95    163.94    -27.34     16.99
   19.2021    158.06    162.04    -29.33     16.99
   19.2123    155.85    160.18    -29.69     16.99
   19.2224    156.49    158.40    -27.26     16.99
   19.2326    153.58    156.65    -28.42     16.99
   19.2428    152.11    154.95    -28.19     16.99
   19.2529    151.24    153.32    -27.43     16.99
   19.2631    150.91    151.72    -26.16     16.99
   19.2733    148.38    150.17    -27.15     16.99
   19.2834    145.57    148.69    -28.47     16.99
   19.2936    144.51    147.24    -28.09     16.99
   19.3038    142.02    145.84    -29.18     16.99
   19.3139    143.00    144.51    -26.86     16.99
   19.3241    143.59    143.20    -24.97     16.99
   19.3342    138.98    141.96    -28.33     16.99
   19.3444    141.20    140.75    -24.90     16.99
   19.3546    140.15    139.58    -24.79     16.99
   19.3647    138.15    138.48    -25.68     16.99
   19.3749    139.23    137.40    -23.52     16.99
   19.3851    135.26    136.37    -26.46     16.99
   19.3952    135.65    135.38    -25.09     16.99
   19.4054    135.55    134.43    -24.24     16.99
   19.4156    133.87    133.52    -25.01     16.99
   19.4257    134.24    132.66    -23.77     16.99
   19.4359    131.31    131.83    -25.87     16.99
   19.4461    133.00    131.04    -23.39     16.99
   19.4562    129.84    130.29    -25.80     16.99
   19.4664    131.16    129.56    -23.76     16.99
   19.4765    129.51    128.89    -24.73     16.99
   19.4867    129.55    128.23    -24.04     16.99
   19.4969    127.86    127.62    -25.11     16.99
   19.5070    127.86    127.03    -24.53     16.99
   19.5172    128.34    126.48    -23.49     16.99
   19.5274    128.73    125.96    -22.58     16.99
   19.5375    126.07    125.47    -24.75     16.99
   19.5477    125.39    125.01    -24.97     16.99
   19.5579    126.74    124.57    -23.18     16.98
   19.5680    127.37    124.17    -22.15     16.98
   19.5782    123.41    123.79    -25.73     16.98
   19.5884    125.41    123.43    -23.37     16.98
   19.5985    124.05    123.11    -24.41     16.98
   19.6087    125.02    122.80    -23.13     16.98
   19.6188    123.87    122.52    -24.01     16.98
   19.6290    123.64    122.27    -23.98     16.98
   19.6392    123.09    122.03    -24.30     16.98
   19.6493    123.48    121.83    -23.70     16.98
   19.6595    123.24    121.64    -23.75     16.98
   19.6697    122.44    121.47    -24.38     16.98
   19.6798    122.52    121.32    -24.15     16.98
   19.6900    122.62    121.19    -23.93     16.98
   19.7002    121.15    121.08    -25.29     16.98
   19.7103    122.65    121.00    -23.70     16.98
   19.7205    121.62    120.92    -24.66     16.98
   19.7307    119.18    120.87    -27.04     16.98
   19.7408    120.77    120.84    -25.42     16.98
   19.7510    119.76    120.82    -26.41     16.98
   19.7612    121.21    120.82    -24.96     16.98
   19.7713    121.62    120.83    -24.56     16.98
   19.7815    121.33    120.86    -24.88     16.98
   19.7916    120.39    120.90    -25.87     16.98
   19.8018    123.19    120.96    -23.13     16.98
   19.8120    121.70    121.04    -24.69     16.98
   19.8221    121.02    121.13    -25.46     16.98
   19.8323    120.43    121.23    -26.15     16.98
   19.8425    121.85    121.35    -24.85     16.98
   19.8526    119.42    121.48    -27.41     16.98
   19.8628    121.05    121.62    -25.92     16.98
   19.8730    120.25    121.78    -26.88     16.98
   19.8831    120.05    121.95    -27.25     16.98
   19.8933    121.06    122.13    -26.42     16.98
   19.9035    120.41    122.32    -27.26     16.98
   19.9136    118.80    122.52    -29.07     16.98
   19.9238    121.35    122.74    -26.74     16.98
   19.9339    120.38    122.96    -27.93     16.98
   19.9441    119.15    123.20    -29.40     16.98
   19.9543    119.59    123.45    -29.21     16.98
   19.9644    122.16    123.70    -26.89     16.98
   19.9746    121.05    123.97    -28.27     16.98
   19.9848    121.42    124.25    -28.18     16.98
   19.9949    121.58    124.53    -28.30     16.98
   20.0051    119.06    124.82    -31.12     16.98
   20.0153    120.74    125.13    -29.74     16.98
   20.0254    121.37    125.44    -29.42     16.98
   20.0356    121.23    125.76    -29.88     16.98
   20.0458    121.29    126.08    -30.15     16.98
   20.0559    121.99    126.42    -29.78     16.97
   20.0661    120.46    126.76    -31.65     16.97
   20.0763    121.87    127.10    -30.59     16.97
   20.0864    121.46    127.45    -31.35     16.97
   20.0966    122.76    127.81    -30.41     16.97
   20.1067    121.82    128.17    -31.71     16.97
   20.1169    124.83    128.54    -29.07     16.97
   20.1271    122.87    128.92    -31.40     16.97
   20.1372    123.18    129.29    -31.46     16.97
   20.1474    123.99    129.67    -31.03     16.97
   20.1576    122.74    130.05    -32.66     16.97
   20.1677    125.24    130.43    -30.54     16.97
   20.1779    124.70    130.82    -31.47     16.97
   20.1881    123.49    131.20    -33.07     16.97
   20.1982    125.90    131.59    -31.04     16.97
   20.2084    126.32    131.97    -31.01     16.97
   20.2186    125.61    132.36    -32.10     16.97
   20.2287    126.23    132.74    -31.86     16.97
   20.2389    127.44    133.12    -31.03     16.97
   20.2490    126.31    133.49    -32.53     16.97
   20.2592    127.36    133.86    -31.85     16.97
   20.2694    127.80    134.23    -31.78     16.97
   20.2795    128.72    134.59    -31.22     16.97
   20.2897    130.06    134.94    -30.23     16.97
   20.2999    130.54    135.29    -30.10     16.97
   20.3100    129.02    135.63    -31.96     16.97
   20.3202    128.84    135.96    -32.47     16.97
   20.3304    129.60    136.28    -32.03     16.97
   20.3405    130.45    136.58    -31.48     16.97
   20.3507    131.71    136.88    -30.52     16.97
   20.3609    130.97    137.16    -31.54     16.97
   20.3710    130.80    137.43    -31.98     16.97
   20.3812    132.79    137.69    -30.25     16.97
   20.3914    135.42    137.93    -27.86     16.97
   20.4015    133.01    138.15    -30.49     16.97
   20.4117    133.49    138.36    -30.22     16.97
   20.4218    134.55    138.55    -29.35     16.97
   20.4320    134.48    138.72    -29.60     16.97
   20.4422    135.10    138.88    -29.13     16.97
   20.4523    135.98    139.01    -28.38     16.97
   20.4625    135.57    139.13    -28.91     16.97
   20.4727    136.85    139.22    -27.72     16.97
   20.4828    137.77    139.30    -26.88     16.97
   20.4930    138.03    139.35    -26.67     16.97
   20.5032    137.65    139.38    -27.08     16.97
   20.5133    138.97    139.39    -25.77     16.97
   20.5235    137.47    139.38    -27.26     16.97
   20.5337    140.89    139.34    -23.80     16.97
   20.5438    141.09    139.29    -23.55     16.97
   20.5540    140.31    139.21    -24.25     16.96
   20.5641    140.77    139.11    -23.69     16.96
   20.5743    137.85    138.98    -26.49     16.96
   20.5845    140.71    138.84    -23.48     16.96
   20.5946    140.72    138.68    -23.31     16.96
   20.6048    141.38    138.49    -22.46     16.96
   20.6150    139.85    138.28    -23.78     16.96
   20.6251    141.50    138.06    -21.91     16.96
   20.6353    142.40    137.81    -20.76     16.96
   20.6455    139.67    137.55    -23.23     16.96
   20.6556    142.76    137.26    -19.86     16.96
   20.6658    140.06    136.96    -22.25     16.96
   20.6760    141.43    136.64    -20.57     16.96
   20.6861    142.68    136.31    -18.98     16.96
   20.6963    141.80    135.96    -19.51     16.96
   20.7065    140.86    135.60    -20.09     16.96
   20.7166    142.27    135.22    -18.30     16.96
   20.7268    142.85    134.83    -17.33     16.96
   20.7369    140.80    134.43    -18.98     16.96
   20.7471    141.77    134.01    -17.60     16.96
   20.7573    141.09    133.59    -17.85     16.96
   20.7674    137.73    133.16    -20.78     16.96
   20.7776    140.25    132.71    -17.81     16.96
   20.7878    140.95    132.26    -16.66     16.96
   20.7979    139.65    131.80    -17.50     16.96
   20.8081    138.36    131.34    -18.33     16.96
   20.8183    139.04    130.86    -17.18     16.96
   20.8284    135.91    130.39    -19.83     16.96
   20.8386    137.67    129.91    -17.59     16.96
   20.8488    135.35    129.43    -19.43     16.96
   20.8589    135.32    128.94    -18.97     16.96
   20.8691    136.13    128.45    -17.68     16.96
   20.8792    137.15    127.97    -16.17     16.96
   20.8894    134.47    127.48    -18.36     16.96
   20.8996    133.62    126.98    -18.72     16.96
   20.9097    132.09    126.50    -19.76     16.96
   20.9199    131.99    126.01    -19.37     16.96
   20.9301    133.32    125.52    -17.55     16.96
   20.9402    132.52    125.04    -17.87     16.96
   20.9504    129.07    124.55    -20.83     16.96
   20.9606    130.31    124.07    -19.11     16.96
   20.9707    129.51    123.60    -19.44     16.96
   20.9809    127.84    123.12    -20.63     16.96
   20.9911    128.59    122.65    -19.41     16.96
   21.0012    127.99    122.19    -19.55     16.96
   21.0114    126.18    121.73    -20.90     16.96
   21.0216    125.65    121.28    -20.98     16.96
   21.0317    124.85    120.83    -21.33     16.96
   21.0419    124.80    120.39    -20.94     16.96
   21.0520    124.57    119.96    -20.74     16.95
   21.0622    123.80    119.52    -21.08     16.95
   21.0724    122.01    119.10    -22.44     16.95
   21.0825    123.43    118.69    -20.61     16.95
   21.0927    122.17    118.28    -21.46     16.95
   21.1029    120.18    117.87    -23.05     16.95
   21.1130    121.07    117.48    -21.77     16.95
   21.1232    118.62    117.10    -23.83     16.95
   21.1334    118.41    116.72    -23.66     16.95
   21.1435    119.10    116.35    -22.60     16.95
   21.1537    118.40    115.99    -22.94     16.95
   21.1639    116.08    115.63    -24.90     16.95
   21.1740    116.73    115.29    -23.91     16.95
   21.1842    116.74    114.95    -23.56     16.95
   21.1943    114.33    114.63    -25.65     16.95
   21.2045    116.30    114.31    -23.36     16.95
   21.2147    114.66    114.00    -24.69     16.95
   21.2248    114.24    113.70    -24.81     16.95
   21.2350    116.51    113.41    -22.25     16.95
   21.2452    114.34    113.12    -24.14     16.95
   21.2553    113.13    112.85    -25.08     16.95
   21.2655    112.79    112.59    -25.15     16.95
   21.2757    113.58    112.34    -24.11     16.95
   21.2858    112.69    112.10    -24.76     16.95
   21.2960    113.50    111.86    -23.71     16.95
   21.3062    112.17    111.64    -24.82     16.95
   21.3163    110.43    111.43    -26.35     16.95
   21.3265    110.49    111.23    -26.09     16.95
   21.3366    110.49    111.03    -25.90     16.95
   21.3468    109.98    110.85    -26.22     16.95
   21.3570    110.26    110.68    -25.77     16.95
   21.3671    110.88    110.52    -24.99     16.95
   21.3773    108.23    110.37    -27.49     16.95
   21.3875    109.73    110.23    -25.85     16.95
   21.3976    111.14    110.10    -24.32     16.95
   21.4078    108.15    109.99    -27.19     16.95
   21.4180    109.24    109.88    -25.99     16.95
   21.4281    109.54    109.79    -25.60     16.95
   21.4383    107.68    109.70    -27.37     16.95
   21.4485    108.06    109.63    -26.92     16.95
   21.4586    109.13    109.57    -25.79     16.95
   21.4688    106.65    109.52    -28.22     16.95
   21.4790    110.29    109.48    -24.55     16.95
   21.4891    106.73    109.46    -28.08     16.95
   21.4993    107.21    109.44    -27.59     16.95
   21.5094    108.36    109.44    -26.44     16.95
   21.5196    109.57    109.45    -25.24     16.95
   21.5298    106.98    109.48    -27.85     16.95
   21.5399    108.76    109.51    -26.10     16.95
   21.5501    109.41    109.56    -25.50     16.95
   21.5603    107.14    109.62    -27.83     16.94
   21.5704    108.73    109.69    -26.32     16.94
   21.5806    108.52    109.78    -26.61     16.94
   21.5908    107.24    109.88    -27.99     16.94
   21.6009    111.20    109.99    -24.14     16.94
   21.6111    107.65    110.12    -27.82     16.94
   21.6213    108.05    110.26    -27.56     16.94
   21.6314    109.68    110.41    -26.08     16.94
   21.6416    109.31    110.58    -26.62     16.94
   21.6517    108.21    110.76    -27.90     16.94
   21.6619    110.88    110.95    -25.42     16.94
   21.6721    110.62    111.16    -25.89     16.94
   21.6822    109.98    111.38    -26.75     16.94
   21.6924    112.34    111.62    -24.63     16.94
   21.7026    111.58    111.87    -25.64     16.94
   21.7127    110.88    112.13    -26.61     16.94
   21.7229    112.39    112.41    -25.38     16.94
   21.7331    112.38    112.71    -25.68     16.94
   21.7432    112.88    113.02    -25.49     16.94
   21.7534    114.60    113.34    -24.10     16.94
   21.7636    113.52    113.69    -25.52     16.94
   21.7737    114.38    114.04    -25.01     16.94
   21.7839    113.75    114.41    -26.01     16.94
   21.7941    114.15    114.80    -26.00     16.94
   21.8042    115.30    115.20    -25.25     16.94
   21.8144    115.82    115.62    -25.15     16.94
   21.8245    116.41    116.05    -24.99     16.94
   21.8347    117.46    116.50    -24.39     16.94
   21.8449    117.15    116.96    -25.17     16.94
   21.8550    120.62    117.44    -22.17     16.94
   21.8652    119.48    117.94    -23.81     16.94
   21.8754    121.42    118.45    -22.39     16.94
   21.8855    122.14    118.98    -22.19     16.94
   21.8957    120.10    119.53    -24.78     16.94
   21.9059    123.13    120.09    -22.31     16.94
   21.9160    124.88    120.66    -21.13     16.94
   21.9262    122.82    121.26    -23.79     16.94
   21.9364    124.84    121.87    -22.38     16.94
   21.9465    126.54    122.49    -21.30     16.94
   21.9567    126.55    123.13    -21.94     16.94
   21.9668    128.43    123.79    -20.71     16.94
   21.9770    127.32    124.46    -22.49     16.94
   21.9872    128.39    125.15    -22.11     16.94
   21.9973    127.76    125.85    -23.44     16.94
   22.0075    128.86    126.57    -23.07     16.94
   22.0177    128.66    127.31    -24.00     16.94
   22.0278    130.26    128.06    -23.15     16.94
   22.0380    131.98    128.82    -22.20     16.94
   22.0482    130.30    129.61    -24.66     16.94
   22.0583    133.98    130.39    -21.77     16.93
   22.0685    132.86    131.20    -23.70     16.93
   22.0787    133.76    132.03    -23.62     16.93
   22.0888    135.18    132.86    -23.03     16.93
   22.0990    136.20    133.70    -22.86     16.93
   22.1092    136.66    134.56    -23.26     16.93
   22.1193    137.88    135.43    -22.90     16.93
   22.1295    138.51    136.31    -23.15     16.93
   22.1396    137.90    137.20    -24.65     16.93
   22.1498    139.64    138.10    -23.81     16.93
   22.1600    141.14    139.01    -23.22     16.93
   22.1701    140.82    139.92    -24.45     16.93
   22.1803    144.01    140.85    -22.19     16.93
   22.1905    144.04    141.78    -23.09     16.93
   22.2006    143.87    142.71    -24.19     16.93
   22.2108    144.34    143.65    -24.67     16.93
   22.2210    146.44    144.60    -23.51     16.93
   22.2311    145.04    145.54    -25.85     16.93
   22.2413    148.65    146.48    -23.18     16.93
   22.2515    150.27    147.43    -22.51     16.93
   22.2616    148.82    148.36    -24.89     16.93
   22.2718    151.82    149.30    -22.83     16.93
   22.2819    153.54    150.22    -22.04     16.93
   22.2921    151.16    151.15    -25.34     16.93
   22.3023    154.45    152.07    -22.97     16.93
   22.3124    155.05    152.96    -23.26     16.93
   22.3226    153.73    153.85    -25.47     16.93
   22.3328    156.57    154.73    -23.51     16.93
   22.3429    158.33    155.58    -22.60     16.93
   22.3531    158.79    156.42    -22.98     16.93
   22.3633    157.97    157.24    -24.62     16.93
   22.3734    158.24    158.03    -25.14     16.93
   22.3836    159.23    158.80    -24.92     16.93
   22.3938    162.02    159.54    -22.87     16.93
   22.4039    161.81    160.25    -23.79     16.93
   22.4141    160.02    160.93    -26.26     16.93
   22.4243    163.80    161.57    -23.12     16.93
   22.4344    165.38    162.17    -22.15     16.93
   22.4446    161.51    162.74    -26.59     16.93
   22.4547    163.23    163.27    -25.39     16.93
   22.4649    165.46    163.75    -23.65     16.93
   22.4751    163.72    164.20    -25.83     16.93
   22.4852    164.82    164.59    -25.12     16.93
   22.4954    165.91    164.93    -24.38     16.93
   22.5056    165.41    165.23    -25.17     16.93
   22.5157    165.20    165.47    -25.62     16.93
   22.5259    165.88    165.67    -25.14     16.93
   22.5361    163.02    165.81    -28.14     16.93
   22.5462    166.82    165.89    -24.42     16.93
   22.5564    167.03    165.92    -24.24     16.92
   22.5666    164.59    165.89    -26.66     16.92
   22.5767    164.23    165.81    -26.94     16.92
   22.5869    163.80    165.68    -27.23     16.92
   22.5970    162.69    165.48    -28.15     16.92
   22.6072    162.63    165.24    -27.96     16.92
   22.6174    164.58    164.93    -25.70     16.92
   22.6275    161.38    164.58    -28.55     16.92
   22.6377    162.36    164.17    -27.16     16.92
   22.6479    160.51    163.70    -28.54     16.92
   22.6580    160.28    163.19    -28.26     16.92
   22.6682    159.70    162.63    -28.28     16.92
   22.6784    161.40    162.01    -25.96     16.92
   22.6885    157.50    161.36    -29.21     16.92
   22.6987    157.94    160.65    -28.06     16.92
   22.7089    159.37    159.90    -25.89     16.92
   22.7190    154.31    159.12    -30.16     16.92
   22.7292    156.41    158.29    -27.24     16.92
   22.7394    156.07    157.43    -26.71     16.92
   22.7495    152.18    156.54    -29.71     16.92
   22.7597    152.77    155.61    -28.19     16.92
   22.7698    153.46    154.65    -26.54     16.92
   22.7800    152.22    153.66    -26.79     16.92
   22.7902    151.49    152.65    -26.51     16.92
   22.8003    150.04    151.62    -26.93     16.92
   22.8105    148.85    150.55    -27.06     16.92
   22.8207    149.32    149.47    -25.51     16.92
   22.8308    147.08    148.39    -26.66     16.92
   22.8410    143.09    147.27    -29.53     16.92
   22.8512    144.40    146.15    -27.10     16.92
   22.8613    143.55    145.02    -26.82     16.92
   22.8715    141.93    143.87    -27.29     16.92
   22.8817    142.06    142.71    -26.01     16.92
   22.8918    141.59    141.56    -25.33     16.92
   22.9020    138.87    140.40    -26.88     16.92
   22.9121    139.07    139.24    -25.52     16.92
   22.9223    137.40    138.07    -26.02     16.92
   22.9325    135.20    136.89    -27.05     16.92
   22.9426    135.65    135.74    -25.44     16.92
   22.9528    134.88    134.57    -25.04     16.92
   22.9630    132.23    133.40    -26.52     16.92
   22.9731    133.71    132.25    -23.89     16.92
   22.9833    131.76    131.10    -24.69     16.92
   22.9935    129.73    129.95    -25.57     16.92
   23.0036    130.16    128.82    -24.01     16.92
   23.0138    128.59    127.68    -24.45     16.92
   23.0240    126.62    126.56    -25.29     16.92
   23.0341    128.52    125.45    -22.29     16.92
   23.0443    125.96    124.35    -23.74     16.92
   23.0545    124.07    123.25    -24.54     16.91
   23.0646    123.76    122.18    -23.77     16.91
   23.0748    122.85    121.11    -23.61     16.91
   23.0849    121.28    120.06    -24.13     16.91
   23.0951    120.82    119.01    -23.54     16.91
   23.1053    120.48    117.98    -22.85     16.91
   23.1154    118.38    116.97    -23.94     16.91
   23.1256    118.37    115.96    -22.94     16.91
   23.1358    116.15    114.96    -24.17     16.91
   23.1459    115.07    113.99    -24.28     16.91
   23.1561    114.71    113.03    -23.67     16.91
   23.1663    112.71    112.07    -24.72     16.91
   23.1764    111.60    111.15    -24.90     16.91
   23.1866    112.65    110.22    -22.92     16.91
   23.1968    112.34    109.31    -22.32     16.91
   23.2069    109.76    108.43    -24.02     16.91
   23.2171    109.89    107.55    -23.01     16.91
   23.2272    108.98    106.69    -23.06     16.91
   23.2374    107.21    105.84    -23.98     16.91
   23.2476    105.66    105.00    -24.69     16.91
   23.2577    108.21    104.19    -21.33     16.91
   23.2679    104.47    103.38    -24.26     16.91
   23.2781    105.19    102.58    -22.75     16.91
   23.2882    104.91    101.81    -22.25     16.91
   23.2984    103.32    101.05    -23.08     16.91
   23.3086    103.43    100.29    -22.22     16.91
   23.3187    101.29     99.56    -23.63     16.91
   23.3289    101.09     98.84    -23.10     16.91
   23.3391    100.78     98.13    -22.70     16.91
   23.3492     99.41     97.44    -23.38     16.91
   23.3594     98.65     96.76    -23.46     16.91
   23.3695     98.35     96.09    -23.10     16.91
   23.3797     97.79     95.44    -23.00     16.91
   23.3899     96.41     94.79    -23.74     16.91
   23.4000     95.27     94.17    -24.25     16.91
   23.4102     94.30     93.55    -24.60     16.91
   23.4204     94.53     92.94    -23.76     16.91
   23.4305     94.48     92.35    -23.23     16.91
   23.4407     92.91     91.77    -24.21     16.91
   23.4509     94.15     91.20    -22.40     16.91
   23.4610     93.83     90.65    -22.17     16.91
   23.4712     90.91     90.10    -24.54     16.91
   23.4814     90.55     89.56    -24.37     16.91
   23.4915     90.51     89.04    -23.88     16.91
   23.5017     89.95     88.53    -23.93     16.91
   23.5119     89.37     88.02    -24.01     16.91
   23.5220     89.44     87.53    -23.45     16.91
   23.5322     88.01     87.05    -24.39     16.91
   23.5423     89.04     86.58    -22.89     16.91
   23.5525     87.60     86.12    -23.87     16.90
   23.5627     86.90     85.66    -24.11     16.90
   23.5728     85.12     85.22    -25.45     16.90
   23.5830     85.94     84.79    -24.20     16.90
   23.5932     85.70     84.36    -24.01     16.90
   23.6033     83.95     83.94    -25.35     16.90
   23.6135     85.30     83.53    -23.59     16.90
   23.6237     82.98     83.13    -25.50     16.90
   23.6338     82.84     82.74    -25.25     16.90
   23.6440     83.24     82.36    -24.47     16.90
   23.6542     82.06     81.98    -25.27     16.90
   23.6643     82.53     81.61    -24.43     16.90
   23.6745     81.95     81.25    -24.65     16.90
   23.6846     80.71     80.90    -25.54     16.90
   23.6948     79.23     80.55    -26.67     16.90
   23.7050     80.63     80.21    -24.93     16.90
   23.7151     79.29     79.87    -25.93     16.90
   23.7253     78.84     79.54    -26.06     16.90
   23.7355     79.04     79.22    -25.53     16.90
   23.7456     77.80     78.91    -26.46     16.90
   23.7558     77.97     78.60    -25.98     16.90
   23.7660     78.08     78.29    -25.56     16.90
   23.7761     75.99     77.99    -27.36     16.90
   23.7863     74.87     77.70    -28.18     16.90
   23.7965     76.57     77.41    -26.19     16.90
   23.8066     75.12     77.13    -27.36     16.90
   23.8168     75.55     76.85    -26.65     16.90
   23.8270     75.31     76.58    -26.62     16.90
   23.8371     74.35     76.31    -27.31     16.90
   23.8473     74.54     76.05    -26.86     16.90
   23.8574     75.71     75.79    -25.43     16.90
   23.8676     74.00     75.53    -26.89     16.90
   23.8778     73.00     75.28    -27.64     16.90
   23.8879     73.67     75.04    -26.72     16.90
   23.8981     72.02     74.79    -28.13     16.90
   23.9083     72.13     74.56    -27.78     16.90
   23.9184     71.09     74.32    -28.58     16.90
   23.9286     71.36     74.09    -28.08     16.90
   23.9388     72.21     73.86    -27.00     16.90
   23.9489     71.67     73.64    -27.32     16.90
   23.9591     71.73     73.42    -27.04     16.90
   23.9693     71.04     73.20    -27.51     16.90
   23.9794     70.59     72.98    -27.75     16.90
   23.9896     69.90     72.77    -28.22     16.90
   23.9997     70.33     72.56    -27.59     16.90
   24.0099     68.94     72.36    -28.77     16.90
   24.0201     69.66     72.15    -27.84     16.90
   24.0302     67.34     71.95    -29.96     16.90
   24.0404     68.98     71.75    -28.13     16.90
   24.0506     68.65     71.56    -28.26     16.89
   24.0607     68.37     71.37    -28.35     16.89
   24.0709     68.71     71.17    -27.82     16.89
   24.0811     68.60     70.99    -27.74     16.89
   24.0912     67.91     70.80    -28.24     16.89
   24.1014     67.30     70.62    -28.67     16.89
   24.1116     67.91     70.43    -27.88     16.89
   24.1217     66.24     70.25    -29.37     16.89
   24.1319     66.68     70.08    -28.75     16.89
   24.1421     66.61     69.90    -28.64     16.89
   24.1522     67.33     69.73    -27.75     16.89
   24.1624     65.61     69.55    -29.30     16.89
   24.1725     66.42     69.38    -28.32     16.89
   24.1827     65.48     69.22    -29.09     16.89
   24.1929     66.02     69.05    -28.38     16.89
   24.2030     65.02     68.88    -29.22     16.89
   24.2132     64.43     68.72    -29.64     16.89
   24.2234     64.37     68.56    -29.54     16.89
   24.2335     64.76     68.40    -28.99     16.89
   24.2437     63.74     68.24    -29.85     16.89
   24.2539     64.38     68.08    -29.05     16.89
   24.2640     64.29     67.93    -28.99     16.89
   24.2742     63.95     67.77    -29.17     16.89
   24.2844     64.18     67.62    -28.79     16.89
   24.2945     64.43     67.47    -28.39     16.89
   24.3047     62.47     67.31    -30.20     16.89
   24.3148     62.68     67.17    -29.84     16.89
   24.3250     62.68     67.02    -29.69     16.89
   24.3352     63.21     66.87    -29.01     16.89
   24.3453     63.33     66.73    -28.75     16.89
   24.3555     61.48     66.58    -30.45     16.89
   24.3657     63.14     66.44    -28.65     16.89
   24.3758     61.66     66.29    -29.99     16.89
   24.3860     62.38     66.15    -29.13     16.89
   24.3962     62.85     66.01    -28.51     16.89
   24.4063     61.43     65.87    -29.80     16.89
   24.4165     62.39     65.74    -28.70     16.89
   24.4267     61.05     65.60    -29.90     16.89
   24.4368     61.86     65.46    -28.95     16.89
   24.4470     59.98     65.33    -30.70     16.89
   24.4572     61.12     65.19    -29.42     16.89
   24.4673     60.26     65.06    -30.15     16.89
   24.4775     61.05     64.93    -29.23     16.89
   24.4876     61.30     64.80    -28.85     16.89
   24.4978     61.09     64.67    -28.93     16.89
   24.5080     60.48     64.54    -29.41     16.89
   24.5181     60.07     64.41    -29.69     16.89
   24.5283     60.99     64.28    -28.64     16.89
   24.5385     59.37     64.15    -30.13     16.89
   24.5486     58.60     64.03    -30.78     16.88
   24.5588     59.95     63.90    -29.30     16.88
   24.5690     59.87     63.77    -29.26     16.88
   24.5791     60.68     63.65    -28.32     16.88
   24.5893     59.95     63.53    -28.93     16.88
   24.5995     59.49     63.40    -29.27     16.88
   24.6096     60.12     63.28    -28.52     16.88
   24.6198     59.85     63.16    -28.66     16.88
   24.6299     58.91     63.04    -29.48     16.88
   24.6401     58.88     62.92    -29.39     16.88
   24.6503     59.09     62.80    -29.06     16.88
   24.6604     57.90     62.69    -30.14     16.88
   24.6706     58.80     62.57    -29.12     16.88
   24.6808     58.48     62.45    -29.32     16.88
   24.6909     58.80     62.33    -28.89     16.88
   24.7011     58.67     62.22    -28.90     16.88
   24.7113     57.66     62.10    -29.79     16.88
   24.7214     57.96     61.99    -29.38     16.88
   24.7316     56.54     61.87    -30.69     16.88
   24.7418     58.85     61.76    -28.26     16.88
   24.7519     57.68     61.65    -29.32     16.88
   24.7621     57.51     61.54    -29.38     16.88
   24.7723     57.43     61.42    -29.35     16.88
   24.7824     57.65     61.31    -29.02     16.88
   24.7926     56.99     61.20    -29.57     16.88
   24.8027     57.58     61.10    -28.87     16.88
   24.8129     57.39     60.99    -28.95     16.88
   24.8231     57.97     60.88    -28.26     16.88
   24.8332     56.96     60.77    -29.16     16.88
   24.8434     58.00     60.66    -28.01     16.88
   24.8536     56.61     60.55    -29.30     16.88
   24.8637     57.24     60.45    -28.56     16.88
   24.8739     57.45     60.34    -28.24     16.88
   24.8841     55.52     60.24    -30.07     16.88
   24.8942     57.06     60.13    -28.42     16.88
   24.9044     56.87     60.03    -28.51     16.88
   24.9146     56.64     59.92    -28.64     16.88
   24.9247     55.90     59.82    -29.27     16.88
   24.9349     54.79     59.72    -30.28     16.88
   24.9450     56.90     59.62    -28.07     16.88
   24.9552     55.74     59.51    -29.13     16.88
   24.9654     56.41     59.41    -28.35     16.88
   24.9755     56.99     59.31    -27.67     16.88
   24.9857     56.23     59.21    -28.33     16.88
   24.9959     56.20     59.11    -28.26     16.88
   25.0060     56.94     59.01    -27.42     16.88
   25.0162     55.71     58.91    -28.55     16.88
   25.0264     55.16     58.81    -29.00     16.88
   25.0365     54.48     58.72    -29.59     16.88
   25.0467     56.72     58.62    -27.25     16.87
   25.0569     55.80     58.52    -28.07     16.87
   25.0670     54.82     58.42    -28.96     16.87
   25.0772     56.03     58.33    -27.65     16.87
   25.0874     56.92     58.23    -26.66     16.87
   25.0975     55.65     58.13    -27.84     16.87
   25.1077     55.06     58.04    -28.33     16.87
   25.1178     54.44     57.95    -28.86     16.87
   25.1280     54.46     57.85    -28.74     16.87
   25.1382     55.56     57.76    -27.55     16.87
   25.1483     54.34     57.66    -28.68     16.87
   25.1585     54.82     57.57    -28.10     16.87
   25.1687     54.89     57.48    -27.94     16.87
   25.1788     54.87     57.38    -27.87     16.87
   25.1890     53.44     57.29    -29.20     16.87
   25.1992     54.19     57.20    -28.36     16.87
   25.2093     55.69     57.11    -26.77     16.87
   25.2195     54.15     57.02    -28.22     16.87
   25.2297     54.21     56.93    -28.07     16.87
   25.2398     54.41     56.84    -27.78     16.87
   25.2500     54.91     56.75    -27.19     16.87
   25.2601     54.74     56.66    -27.27     16.87
   25.2703     54.26     56.57    -27.66     16.87
   25.2805     54.54     56.48    -27.29     16.87
   25.2906     54.22     56.39    -27.53     16.87
   25.3008     53.94     56.31    -27.72     16.87
   25.3110     54.35     56.22    -27.22     16.87
   25.3211     54.04     56.13    -27.44     16.87
   25.3313     53.86     56.05    -27.54     16.87
   25.3415     53.60     55.96    -27.71     16.87
   25.3516     55.54     55.87    -25.69     16.87
   25.3618     53.78     55.79    -27.36     16.87
   25.3720     54.65     55.70    -26.40     16.87
   25.3821     53.48     55.62    -27.49     16.87
   25.3923     54.45     55.53    -26.43     16.87
   25.4024     53.60     55.45    -27.20     16.87
   25.4126     53.17     55.36    -27.55     16.87
   25.4228     53.10     55.28    -27.53     16.87
   25.4329     53.31     55.20    -27.24     16.87
   25.4431     53.82     55.12    -26.65     16.87
   25.4533     53.54     55.03    -26.84     16.87
   25.4634     52.32     54.95    -27.98     16.87
   25.4736     52.60     54.87    -27.62     16.87
   25.4838     53.15     54.79    -26.99     16.87
   25.4939     52.90     54.71    -27.16     16.87
   25.5041     53.99     54.63    -25.99     16.87
   25.5143     54.08     54.54    -25.82     16.87
   25.5244     53.40     54.47    -26.42     16.87
   25.5346     53.35     54.39    -26.39     16.87
   25.5448     53.04     54.31    -26.62     16.87
   25.5549     53.41     54.23    -26.17     16.86
   25.5651     53.47     54.15    -26.03     16.86
   25.5752     53.98     54.07    -25.44     16.86
   25.5854     53.86     53.99    -25.48     16.86
   25.5956     53.07     53.91    -26.20     16.86
   25.6057     53.56     53.84    -25.63     16.86
   25.6159     52.92     53.76    -26.19     16.86
   25.6261     51.66     53.68    -27.37     16.86
   25.6362     53.27     53.61    -25.69     16.86
   25.6464     52.31     53.53    -26.57     16.86
   25.6566     52.44     53.45    -26.36     16.86
   25.6667     53.18     53.38    -25.55     16.86
   25.6769     52.90     53.30    -25.75     16.86
   25.6871     52.35     53.23    -26.23     16.86
   25.6972     52.49     53.15    -26.01     16.86
   25.7074     52.64     53.08    -25.79     16.86
   25.7175     52.03     53.00    -26.33     16.86
   25.7277     52.42     52.93    -25.86     16.86
   25.7379     52.31     52.86    -25.90     16.86
   25.7480     53.74     52.78    -24.40     16.86
   25.7582     51.29     52.71    -26.77     16.86
   25.7684     51.07     52.64    -26.92     16.86
   25.7785     52.40     52.57    -25.52     16.86
   25.7887     51.97     52.50    -25.88     16.86
   25.7989     51.74     52.42    -26.04     16.86
   25.8090     51.55     52.35    -26.15     16.86
   25.8192     52.51     52.28    -25.12     16.86
   25.8294     51.65     52.21    -25.91     16.86
   25.8395     53.21     52.14    -24.28     16.86
   25.8497     53.07     52.07    -24.35     16.86
   25.8599     51.82     52.00    -25.53     16.86
   25.8700     52.31     51.93    -24.97     16.86
   25.8802     52.25     51.86    -24.97     16.86
   25.8903     51.60     51.80    -25.55     16.86
   25.9005     50.45     51.73    -26.63     16.86
   25.9107     51.45     51.66    -25.56     16.86
   25.9208     51.10     51.59    -25.84     16.86
   25.9310     51.43     51.52    -25.45     16.86
   25.9412     50.81     51.46    -26.00     16.86
   25.9513     50.45     51.39    -26.29     16.86
   25.9615     50.77     51.32    -25.91     16.86
   25.9717     51.15     51.26    -25.46     16.86
   25.9818     51.80     51.19    -24.74     16.86
   25.9920     50.82     51.13    -25.66     16.86
   26.0022     50.85     51.06    -25.56     16.86
   26.0123     50.88     51.00    -25.47     16.86
   26.0225     51.91     50.93    -24.37     16.86
   26.0326     50.56     50.87    -25.66     16.86
   26.0428     51.07     50.80    -25.09     16.86
   26.0530     50.56     50.74    -25.53     16.85
   26.0631     50.25     50.68    -25.78     16.85
   26.0733     51.13     50.61    -24.84     16.85
   26.0835     51.65     50.55    -24.25     16.85
   26.0936     49.90     50.49    -25.94     16.85
   26.1038     51.30     50.43    -24.48     16.85
   26.1140     50.35     50.37    -25.37     16.85
   26.1241     50.91     50.30    -24.75     16.85
   26.1343     48.88     50.24    -26.72     16.85
   26.1445     50.36     50.18    -25.17     16.85
   26.1546     50.04     50.12    -25.43     16.85
   26.1648     49.69     50.06    -25.72     16.85
   26.1750     50.77     50.00    -24.58     16.85
   26.1851     49.66     49.94    -25.64     16.85
   26.1953     49.49     49.88    -25.75     16.85
   26.2054     49.83     49.83    -25.35     16.85
   26.2156     50.37     49.77    -24.75     16.85
   26.2258     48.80     49.71    -26.26     16.85
   26.2359     49.93     49.65    -25.07     16.85
   26.2461     49.26     49.60    -25.69     16.85
   26.2563     49.58     49.54    -25.31     16.85
   26.2664     48.84     49.48    -25.99     16.85
   26.2766     49.13     49.43    -25.65     16.85
   26.2868     48.69     49.37    -26.03     16.85
   26.2969     48.92     49.31    -25.75     16.85
   26.3071     48.27     49.26    -26.34     16.85
   26.3173     49.07     49.20    -25.49     16.85
   26.3274     49.74     49.15    -24.76     16.85
   26.3376     48.44     49.10    -26.01     16.85
   26.3477     49.65     49.04    -24.75     16.85
   26.3579     48.89     48.99    -25.45     16.85
   26.3681     48.15     48.94    -26.14     16.85
   26.3782     48.65     48.88    -25.59     16.85
   26.3884     48.15     48.83    -26.03     16.85
   26.3986     48.23     48.78    -25.90     16.85
   26.4087     49.30     48.73    -24.78     16.85
   26.4189     48.13     48.68    -25.90     16.85
   26.4291     47.97     48.63    -26.01     16.85
   26.4392     48.78     48.58    -25.15     16.85
   26.4494     48.13     48.53    -25.75     16.85
   26.4596     47.62     48.48    -26.21     16.85
   26.4697     48.34     48.43    -25.44     16.85
   26.4799     47.38     48.38    -26.35     16.85
   26.4901     47.42     48.33    -26.26     16.85
   26.5002     47.39     48.28    -26.25     16.85
   26.5104     48.52     48.24    -25.07     16.85
   26.5205     48.95     48.19    -24.59     16.85
   26.5307     47.73     48.14    -25.77     16.85
   26.5409     48.29     48.10    -25.16     16.85
   26.5510     48.24     48.05    -25.16     16.84
   26.5612     48.43     48.01    -24.93     16.84
   26.5714     48.23     47.96    -25.08     16.84
   26.5815     48.00     47.92    -25.27     16.84
   26.5917     47.76     47.87    -25.46     16.84
   26.6019     47.35     47.83    -25.83     16.84
   26.6120     47.40     47.79    -25.74     16.84
   26.6222     47.50     47.74    -25.59     16.84
   26.6324     46.63     47.70    -26.42     16.84
   26.6425     47.84     47.66    -25.17     16.84
   26.6527     47.11     47.62    -25.86     16.84
   26.6628     47.33     47.58    -25.60     16.84
   26.6730     46.23     47.54    -26.66     16.84
   26.6832     47.09     47.50    -25.76     16.84
   26.6933     47.43     47.46    -25.38     16.84
   26.7035     47.38     47.42    -25.39     16.84
   26.7137     47.60     47.38    -25.13     16.84
   26.7238     47.13     47.34    -25.56     16.84
   26.7340     47.27     47.30    -25.39     16.84
   26.7442     46.40     47.27    -26.22     16.84
   26.7543     46.60     47.23    -25.98     16.84
   26.7645     47.41     47.19    -25.14     16.84
   26.7747     47.11     47.16    -25.40     16.84
   26.7848     46.68     47.12    -25.80     16.84
   26.7950     48.14     47.09    -24.30     16.84
   26.8052     47.02     47.06    -25.39     16.84
   26.8153     46.73     47.02    -25.64     16.84
   26.8255     46.84     46.99    -25.50     16.84
   26.8356     47.95     46.96    -24.36     16.84
   26.8458     46.89     46.93    -25.39     16.84
   26.8560     47.43     46.89    -24.82     16.84
   26.8661     46.77     46.86    -25.45     16.84
   26.8763     45.38     46.83    -26.81     16.84
   26.8865     46.77     46.80    -25.39     16.84
   26.8966     46.93     46.78    -25.20     16.84
   26.9068     46.50     46.75    -25.60     16.84
   26.9170     47.29     46.72    -24.78     16.84
   26.9271     46.06     46.69    -25.99     16.84
   26.9373     46.50     46.67    -25.52     16.84
   26.9475     47.70     46.64    -24.29     16.84
   26.9576     46.10     46.62    -25.87     16.84
   26.9678     45.68     46.59    -26.27     16.84
   26.9779     46.89     46.57    -25.03     16.84
   26.9881     45.88     46.55    -26.02     16.84
   26.9983     46.23     46.52    -25.65     16.84
   27.0084     46.52     46.50    -25.34     16.84
   27.0186     46.51     46.48    -25.32     16.84
   27.0288     46.81     46.46    -25.00     16.84
   27.0389     47.13     46.44    -24.67     16.84
   27.0491     46.03     46.42    -25.75     16.83
   27.0593     47.07     46.41    -24.69     16.83
   27.0694     46.76     46.39    -24.98     16.83
   27.0796     45.90     46.37    -25.83     16.83
   27.0898     45.42     46.36    -26.29     16.83
   27.0999     46.30     46.34    -25.40     16.83
   27.1101     46.61     46.33    -25.07     16.83
   27.1202     46.52     46.32    -25.15     16.83
   27.1304     45.67     46.31    -25.99     16.83
   27.1406     45.74     46.30    -25.91     16.83
   27.1507     46.40     46.29    -25.24     16.83
   27.1609     45.68     46.28    -25.95     16.83
   27.1711     45.76     46.27    -25.86     16.83
   27.1812     46.03     46.26    -25.58     16.83
   27.1914     45.47     46.25    -26.14     16.83
   27.2016     45.97     46.25    -25.63     16.83
   27.2117     46.40     46.25    -25.20     16.83
   27.2219     45.81     46.24    -25.78     16.83
   27.2321     46.15     46.24    -25.44     16.83
   27.2422     45.37     46.24    -26.22     16.83
   27.2524     46.73     46.24    -24.86     16.83
   27.2626     46.07     46.24    -25.52     16.83
   27.2727     46.58     46.24    -25.02     16.83
   27.2829     46.22     46.25    -25.38     16.83
   27.2930     45.41     46.25    -26.19     16.83
   27.3032     45.10     46.26    -26.51     16.83
   27.3134     44.83     46.27    -26.79     16.83
   27.3235     46.66     46.28    -24.97     16.83
   27.3337     45.48     46.29    -26.16     16.83
   27.3439     46.23     46.30    -25.42     16.83
   27.3540     46.23     46.31    -25.43     16.83
   27.3642     45.36     46.33    -26.32     16.83
   27.3744     45.68     46.34    -26.02     16.83
   27.3845     46.13     46.36    -25.58     16.83
   27.3947     46.40     46.38    -25.33     16.83
   27.4049     45.99     46.40    -25.77     16.83
   27.4150     45.79     46.43    -25.99     16.83
   27.4252     45.39     46.45    -26.41     16.83
   27.4353     46.70     46.48    -25.13     16.83
   27.4455     46.52     46.51    -25.34     16.83
   27.4557     45.93     46.54    -25.96     16.83
   27.4658     46.67     46.57    -25.25     16.83
   27.4760     47.24     46.61    -24.72     16.83
   27.4862     47.32     46.64    -24.68     16.83
   27.4963     46.42     46.68    -25.61     16.83
   27.5065     47.06     46.72    -25.02     16.83
   27.5167     46.95     46.77    -25.17     16.83
   27.5268     46.06     46.81    -26.11     16.83
   27.5370     46.32     46.86    -25.90     16.83
   27.5472     46.96     46.91    -25.31     16.82
   27.5573     46.71     46.97    -25.61     16.82
   27.5675     46.54     47.03    -25.84     16.82
   27.5777     47.54     47.09    -24.90     16.82
   27.5878     47.56     47.15    -24.94     16.82
   27.5980     46.49     47.21    -26.08     16.82
   27.6081     47.41     47.28    -25.22     16.82
   27.6183     47.90     47.35    -24.81     16.82
   27.6285     47.43     47.43    -25.35     16.82
   27.6386     47.13     47.51    -25.73     16.82
   27.6488     47.90     47.59    -25.04     16.82
   27.6590     46.79     47.67    -26.23     16.82
   27.6691     47.30     47.76    -25.81     16.82
   27.6793     48.55     47.85    -24.66     16.82
   27.6895     48.43     47.95    -24.87     16.82
   27.6996     47.68     48.05    -25.72     16.82
   27.7098     47.88     48.15    -25.63     16.82
   27.7200     48.33     48.26    -25.28     16.82
   27.7301     48.21     48.37    -25.52     16.82
   27.7403     48.02     48.49    -25.82     16.82
   27.7504     49.26     48.61    -24.70     16.82
   27.7606     48.62     48.74    -25.47     16.82
   27.7708     48.62     48.87    -25.60     16.82
   27.7809     50.46     49.00    -23.89     16.82
   27.7911     49.86     49.14    -24.63     16.82
   27.8013     48.80     49.29    -25.84     16.82
   27.8114     48.87     49.44    -25.92     16.82
   27.8216     49.70     49.59    -25.24     16.82
   27.8318     49.37     49.75    -25.74     16.82
   27.8419     49.71     49.92    -25.56     16.82
   27.8521     49.78     50.09    -25.66     16.82
   27.8623     50.66     50.27    -24.96     16.82
   27.8724     50.63     50.45    -25.17     16.82
   27.8826     50.60     50.64    -25.39     16.82
   27.8928     50.59     50.83    -25.59     16.82
   27.9029     52.77     51.03    -23.61     16.82
   27.9131     49.81     51.24    -26.78     16.82
   27.9232     51.55     51.45    -25.25     16.82
   27.9334     51.32     51.67    -25.70     16.82
   27.9436     51.55     51.89    -25.70     16.82
   27.9537     52.19     52.12    -25.29     16.82
   27.9639     52.87     52.36    -24.85     16.82
   27.9741     53.27     52.61    -24.69     16.82
   27.9842     53.14     52.86    -25.07     16.82
   27.9944     53.11     53.12    -25.36     16.82
   28.0046     53.52     53.38    -25.21     16.82
   28.0147     54.01     53.65    -24.99     16.82
   28.0249     53.06     53.93    -26.22     16.82
   28.0351     53.92     54.22    -25.65     16.82
   28.0452     54.60     54.51    -25.26     16.81
   28.0554     54.30     54.81    -25.86     16.81
   28.0655     56.39     55.11    -24.07     16.81
   28.0757     55.09     55.42    -25.69     16.81
   28.0859     56.15     55.74    -24.95     16.81
   28.0960     55.83     56.07    -25.59     16.81
   28.1062     56.21     56.40    -25.54     16.81
   28.1164     57.50     56.74    -24.60     16.81
   28.1265     57.75     57.09    -24.69     16.81
   28.1367     58.08     57.44    -24.71     16.81
   28.1469     59.09     57.80    -24.06     16.81
   28.1570     57.99     58.16    -25.53     16.81
   28.1672     59.13     58.54    -24.76     16.81
   28.1774     60.13     58.92    -24.14     16.81
   28.1875     59.15     59.30    -25.50     16.81
   28.1977     60.28     59.69    -24.76     16.81
   28.2079     61.92     60.08    -23.51     16.81
   28.2180     62.20     60.48    -23.63     16.81
   28.2282     63.24     60.88    -23.00     16.81
   28.2383     64.59     61.29    -22.05     16.81
   28.2485     62.18     61.70    -24.87     16.81
   28.2587     63.90     62.12    -23.57     16.81
   28.2688     64.24     62.53    -23.65     16.81
   28.2790     65.17     62.96    -23.14     16.81
   28.2892     65.07     63.38    -23.66     16.81
   28.2993     64.46     63.80    -24.69     16.81
   28.3095     65.31     64.23    -24.27     16.81
   28.3197     65.90     64.65    -24.11     16.81
   28.3298     65.29     65.07    -25.14     16.81
   28.3400     66.62     65.50    -24.23     16.81
   28.3502     68.35     65.92    -22.92     16.81
   28.3603     67.96     66.33    -23.73     16.81
   28.3705     67.01     66.75    -25.09     16.81
   28.3806     68.54     67.15    -23.96     16.81
   28.3908     68.25     67.56    -24.66     16.81
   28.4010     68.90     67.95    -24.40     16.81
   28.4111     70.36     68.34    -23.33     16.81
   28.4213     68.41     68.71    -25.66     16.81
   28.4315     68.74     69.08    -25.69     16.81
   28.4416     69.32     69.43    -25.47     16.81
   28.4518     70.04     69.78    -25.09     16.81
   28.4620     70.34     70.11    -25.12     16.81
   28.4721     70.70     70.42    -25.07     16.81
   28.4823     70.18     70.72    -25.89     16.81
   28.4925     69.76     71.00    -26.59     16.81
   28.5026     70.74     71.26    -25.87     16.81
   28.5128     71.12     71.50    -25.73     16.81
   28.5230     70.43     71.72    -26.65     16.81
   28.5331     71.96     71.92    -25.31     16.81
   28.5433     70.72     72.10    -26.73     16.80
   28.5534     70.47     72.26    -27.14     16.80
   28.5636     71.12     72.39    -26.62     16.80
   28.5738     71.16     72.50    -26.69     16.80
   28.5839     70.82     72.58    -27.11     16.80
   28.5941     70.93     72.64    -27.06     16.80
   28.6043     73.55     72.67    -24.48     16.80
   28.6144     70.22     72.68    -27.81     16.80
   28.6246     71.79     72.67    -26.23     16.80
   28.6348     72.26     72.62    -25.72     16.80
   28.6449     71.76     72.56    -26.15     16.80
   28.6551     71.90     72.47    -25.92     16.80
   28.6653     70.85     72.35    -26.86     16.80
   28.6754     73.36     72.22    -24.21     16.80
   28.6856     71.66     72.06    -25.75     16.80
   28.6957     71.62     71.88    -25.61     16.80
   28.7059     71.01     71.67    -26.01     16.80
   28.7161     70.34     71.45    -26.46     16.80
   28.7262     71.87     71.21    -24.69     16.80
   28.7364     69.32     70.95    -26.98     16.80
   28.7466     70.57     70.67    -25.45     16.80
   28.7567     70.61     70.38    -25.12     16.80
   28.7669     69.34     70.07    -26.09     16.80
   28.7771     68.98     69.75    -26.13     16.80
   28.7872     69.80     69.42    -24.97     16.80
   28.7974     68.50     69.08    -25.93     16.80
   28.8076     68.05     68.72    -26.02     16.80
   28.8177     68.11     68.36    -25.60     16.80
   28.8279     67.66     67.99    -25.68     16.80
   28.8381     67.21     67.61    -25.75     16.80
   28.8482     67.29     67.23    -25.29     16.80
   28.8584     66.98     66.84    -25.21     16.80
   28.8685     67.30     66.45    -24.50     16.80
   28.8787     67.55     66.05    -23.85     16.80
   28.8889     64.99     65.65    -26.01     16.80
   28.8990     64.79     65.25    -25.81     16.80
   28.9092     65.85     64.85    -24.35     16.80
   28.9194     64.15     64.44    -25.65     16.80
   28.9295     64.26     64.04    -25.14     16.80
   28.9397     64.80     63.64    -24.19     16.80
   28.9499     65.08     63.24    -23.51     16.80
   28.9600     62.04     62.84    -26.16     16.80
   28.9702     63.41     62.45    -24.39     16.80
   28.9804     62.13     62.05    -25.28     16.80
   28.9905     62.52     61.67    -24.50     16.80
   29.0007     60.91     61.28    -25.72     16.80
   29.0108     60.83     60.90    -25.42     16.80
   29.0210     60.96     60.52    -24.91     16.80
   29.0312     60.93     60.14    -24.56     16.80
   29.0413     60.30     59.77    -24.83     16.80
   29.0515     60.64     59.41    -24.12     16.79
   29.0617     60.32     59.04    -24.08     16.79
   29.0718     58.09     58.69    -25.95     16.79
   29.0820     58.27     58.34    -25.42     16.79
   29.0922     58.50     57.99    -24.84     16.79
   29.1023     57.01     57.65    -26.00     16.79
   29.1125     57.02     57.32    -25.65     16.79
   29.1227     57.51     56.99    -24.83     16.79
   29.1328     56.01     56.66    -26.01     16.79
   29.1430     57.65     56.34    -24.05     16.79
   29.1531     55.30     56.03    -26.08     16.79
   29.1633     55.77     55.72    -25.30     16.79
   29.1735     55.52     55.42    -25.25     16.79
   29.1836     55.36     55.12    -25.12     16.79
   29.1938     55.85     54.83    -24.33     16.79
   29.2040     54.88     54.54    -25.01     16.79
   29.2141     54.98     54.26    -24.63     16.79
   29.2243     53.20     53.99    -26.14     16.79
   29.2345     54.77     53.71    -24.29     16.79
   29.2446     54.30     53.45    -24.50     16.79
   29.2548     53.27     53.19    -25.27     16.79
   29.2650     52.86     52.93    -25.42     16.79
   29.2751     53.24     52.68    -24.79     16.79
   29.2853     52.30     52.43    -25.48     16.79
   29.2955     52.09     52.19    -25.45     16.79
   29.3056     51.93     51.95    -25.37     16.79
   29.3158     50.80     51.72    -26.27     16.79
   29.3259     51.40     51.49    -25.44     16.79
   29.3361     51.77     51.26    -24.85     16.79
   29.3463     49.87     51.04    -26.53     16.79
   29.3564     48.95     50.83    -27.23     16.79
   29.3666     49.68     50.61    -26.29     16.79
   29.3768     50.47     50.41    -25.29     16.79
   29.3869     49.09     50.20    -26.46     16.79
   29.3971     50.26     50.00    -25.09     16.79
   29.4073     49.17     49.80    -25.98     16.79
   29.4174     49.42     49.61    -25.54     16.79
   29.4276     47.80     49.42    -26.97     16.79
   29.4378     48.78     49.23    -25.80     16.79
   29.4479     49.44     49.04    -24.96     16.79
   29.4581     50.09     48.86    -24.12     16.79
   29.4682     47.83     48.69    -26.21     16.79
   29.4784     47.20     48.51    -26.66     16.79
   29.4886     47.69     48.34    -26.00     16.79
   29.4987     47.39     48.17    -26.13     16.79
   29.5089     47.52     48.00    -25.83     16.79
   29.5191     46.20     47.83    -26.98     16.79
   29.5292     45.67     47.67    -27.35     16.79
   29.5394     46.57     47.51    -26.29     16.79
   29.5496     47.19     47.35    -25.51     16.78
   29.5597     46.64     47.19    -25.91     16.78
   29.5699     46.34     47.04    -26.05     16.78
   29.5801     46.04     46.89    -26.20     16.78
   29.5902     45.57     46.74    -26.52     16.78
   29.6004     45.64     46.59    -26.30     16.78
   29.6106     45.94     46.44    -25.85     16.78
   29.6207     46.03     46.30    -25.62     16.78
   29.6309     44.46     46.15    -27.05     16.78
   29.6410     44.46     46.01    -26.91     16.78
   29.6512     44.59     45.87    -26.63     16.78
   29.6614     45.05     45.73    -26.04     16.78
   29.6715     45.99     45.60    -24.96     16.78
   29.6817     45.07     45.46    -25.74     16.78
   29.6919     44.34     45.32    -26.34     16.78
   29.7020     44.41     45.19    -26.13     16.78
   29.7122     43.86     45.06    -26.55     16.78
   29.7224     44.59     44.93    -25.69     16.78
   29.7325     44.30     44.80    -25.85     16.78
   29.7427     43.54     44.67    -26.48     16.78
   29.7529     43.12     44.54    -26.77     16.78
   29.7630     43.26     44.41    -26.51     16.78
   29.7732     43.77     44.29    -25.87     16.78
   29.7833     43.46     44.16    -26.06     16.78
   29.7935     44.71     44.04    -24.68     16.78
   29.8037     42.93     43.92    -26.34     16.78
   29.8138     42.91     43.79    -26.24     16.78
   29.8240     43.32     43.67    -25.70     16.78
   29.8342     43.26     43.55    -25.64     16.78
   29.8443     42.42     43.43    -26.36     16.78
   29.8545     42.66     43.31    -26.00     16.78
   29.8647     41.94     43.19    -26.60     16.78
   29.8748     42.49     43.08    -25.94     16.78
   29.8850     43.56     42.96    -24.75     16.78
   29.8952     42.76     42.84    -25.43     16.78
   29.9053     43.49     42.73    -24.59     16.78
   29.9155     42.70     42.61    -25.26     16.78
   29.9257     41.94     42.50    -25.91     16.78
   29.9358     42.24     42.38    -25.49     16.78
   29.9460     43.16     42.27    -24.46     16.78
   29.9561     42.37     42.16    -25.14     16.78
   29.9663     41.64     42.05    -25.76     16.78
   29.9765     42.22     41.93    -25.07     16.78
   29.9866     41.36     41.82    -25.82     16.78
   29.9968     41.98     41.71    -25.08     16.78
   30.0070     41.65     41.60    -25.30     16.78
   30.0171     41.99     41.49    -24.86     16.78
   30.0273     41.91     41.39    -24.83     16.78
   30.0375     42.40     41.28    -24.23     16.78
   30.0476     41.62     41.17    -24.90     16.77
   30.0578     41.54     41.06    -24.88     16.77
   30.0680     41.93     40.96    -24.38     16.77
   30.0781     42.32     40.85    -23.88     16.77
   30.0883     42.73     40.75    -23.37     16.77
   30.0984     42.07     40.64    -23.93     16.77
   30.1086     40.94     40.54    -24.95     16.77
   30.1188     41.46     40.44    -24.33     16.77
   30.1289     41.57     40.33    -24.12     16.77
   30.1391     41.38     40.23    -24.20     16.77
   30.1493     40.91     40.13    -24.57     16.77
   30.1594     40.93     40.03    -24.45     16.77
   30.1696     41.63     39.93    -23.65     16.77
   30.1798     41.80     39.83    -23.38     16.77
   30.1899     41.23     39.73    -23.85     16.77
   30.2001     40.09     39.63    -24.89     16.77
   30.2103     40.74     39.53    -24.15     16.77
   30.2204     40.88     39.44    -23.91     16.77
   30.2306     40.21     39.34    -24.48     16.77
   30.2408     39.82     39.24    -24.78     16.77
   30.2509     39.46     39.15    -25.04     16.77
   30.2611     39.31     39.05    -25.09     16.77
   30.2712     40.16     38.96    -24.15     16.77
   30.2814     40.49     38.86    -23.73     16.77
   30.2916     39.29     38.77    -24.83     16.77
   30.3017     39.14     38.68    -24.89     16.77
   30.3119     40.32     38.59    -23.62     16.77
   30.3221     39.67     38.50    -24.18     16.77
   30.3322     39.79     38.41    -23.97     16.77
   30.3424     39.18     38.31    -24.49     16.77
   30.3526     38.90     38.22    -24.68     16.77
   30.3627     38.76     38.14    -24.73     16.77
   30.3729     39.30     38.05    -24.10     16.77
   30.3831     38.16     37.96    -25.15     16.77
   30.3932     39.48     37.87    -23.75     16.77
   30.4034     39.38     37.79    -23.76     16.77
   30.4135     38.48     37.70    -24.57     16.77
   30.4237     37.86     37.62    -25.11     16.77
   30.4339     38.45     37.53    -24.43     16.77
   30.4440     38.64     37.45    -24.16     16.77
   30.4542     38.68     37.36    -24.04     16.77
   30.4644     38.36     37.28    -24.27     16.77
   30.4745     37.54     37.20    -25.01     16.77
   30.4847     37.74     37.12    -24.73     16.77
   30.4949     38.07     37.04    -24.32     16.77
   30.5050     37.23     36.96    -25.08     16.77
   30.5152     38.15     36.88    -24.08     16.77
   30.5254     38.55     36.80    -23.60     16.77
   30.5355     37.03     36.72    -25.04     16.77
   30.5457     38.54     36.64    -23.46     16.76
   30.5559     37.29     36.57    -24.63     16.76
   30.5660     37.26     36.49    -24.58     16.76
   30.5762     37.79     36.42    -23.98     16.76
   30.5863     37.75     36.34    -23.94     16.76
   30.5965     36.76     36.27    -24.86     16.76
   30.6067     36.32     36.19    -25.22     16.76
   30.6168     36.79     36.12    -24.68     16.76
   30.6270     36.54     36.05    -24.86     16.76
   30.6372     36.76     35.98    -24.57     16.76
   30.6473     36.79     35.91    -24.47     16.76
   30.6575     36.18     35.83    -25.01     16.76
   30.6677     36.68     35.76    -24.44     16.76
   30.6778     36.72     35.70    -24.33     16.76
   30.6880     35.17     35.63    -25.81     16.76
   30.6982     34.96     35.56    -25.95     16.76
   30.7083     36.06     35.49    -24.78     16.76
   30.7185     35.94     35.43    -24.84     16.76
   30.7286     35.23     35.36    -25.48     16.76
   30.7388     35.16     35.30    -25.49     16.76
   30.7490     34.91     35.23    -25.67     16.76
   30.7591     34.87     35.17    -25.65     16.76
   30.7693     36.51     35.10    -23.95     16.76
   30.7795     35.81     35.04    -24.58     16.76
   30.7896     35.48     34.98    -24.85     16.76
   30.7998     35.34     34.92    -24.93     16.76
   30.8100     34.79     34.86    -25.42     16.76
   30.8201     34.91     34.80    -25.24     16.76
   30.8303     34.85     34.74    -25.24     16.76
   30.8405     35.03     34.68    -25.00     16.76
   30.8506     35.41     34.62    -24.56     16.76
   30.8608     34.16     34.56    -25.76     16.76
   30.8710     35.51     34.51    -24.35     16.76
   30.8811     33.93     34.45    -25.87     16.76
   30.8913     34.56     34.40    -25.19     16.76
   30.9014     33.75     34.34    -25.94     16.76
   30.9116     34.67     34.29    -24.97     16.76
   30.9218     35.16     34.23    -24.42     16.76
   30.9319     34.62     34.18    -24.91     16.76
   30.9421     34.34     34.13    -25.14     16.76
   30.9523     34.11     34.08    -25.32     16.76
   30.9624     33.83     34.03    -25.55     16.76
   30.9726     33.51     33.98    -25.82     16.76
   30.9828     34.34     33.93    -24.94     16.76
   30.9929     33.72     33.88    -25.51     16.76
   31.0031     33.51     33.83    -25.67     16.76
   31.0133     34.35     33.78    -24.78     16.76
   31.0234     33.52     33.73    -25.57     16.76
   31.0336     33.57     33.69    -25.47     16.76
   31.0437     34.11     33.64    -24.88     16.75
   31.0539     33.40     33.60    -25.55     16.75
   31.0641     35.02     33.55    -23.88     16.75
   31.0742     33.00     33.51    -25.86     16.75
   31.0844     33.93     33.46    -24.89     16.75
   31.0946     33.96     33.42    -24.81     16.75
   31.1047     33.01     33.38    -25.72     16.75
   31.1149     33.00     33.34    -25.69     16.75
   31.1251     33.32     33.30    -25.33     16.75
   31.1352     32.94     33.26    -25.67     16.75
   31.1454     33.41     33.22    -25.16     16.75
   31.1556     32.93     33.18    -25.60     16.75
   31.1657     33.78     33.14    -24.71     16.75
   31.1759     33.22     33.10    -25.23     16.75
   31.1860     33.59     33.06    -24.83     16.75
   31.1962     32.43     33.03    -25.95     16.75
   31.2064     32.63     32.99    -25.71     16.75
   31.2165     33.11     32.96    -25.20     16.75
   31.2267     32.99     32.92    -25.28     16.75
   31.2369     33.49     32.89    -24.75     16.75
   31.2470     32.23     32.86    -25.98     16.75
   31.2572     32.78     32.82    -25.39     16.75
   31.2674     32.95     32.79    -25.19     16.75
   31.2775     32.23     32.76    -25.88     16.75
   31.2877     32.77     32.73    -25.31     16.75
   31.2979     33.35     32.70    -24.70     16.75
   31.3080     32.04     32.67    -25.98     16.75
   31.3182     32.84     32.64    -25.15     16.75
   31.3284     32.76     32.61    -25.20     16.75
   31.3385     32.55     32.58    -25.39     16.75
   31.3487     33.01     32.56    -24.90     16.75
   31.3588     32.52     32.53    -25.36     16.75
   31.3690     32.78     32.50    -25.08     16.75
   31.3792     32.80     32.48    -25.03     16.75
   31.3893     32.26     32.45    -25.55     16.75
   31.3995     32.49     32.43    -25.29     16.75
   31.4097     32.96     32.41    -24.80     16.75
   31.4198     31.41     32.38    -26.32     16.75
   31.4300     32.40     32.36    -25.31     16.75
   31.4402     32.71     32.34    -24.98     16.75
   31.4503     32.00     32.32    -25.67     16.75
   31.4605     32.36     32.30    -25.29     16.75
   31.4707     33.16     32.28    -24.47     16.75
   31.4808     32.10     32.26    -25.51     16.75
   31.4910     32.88     32.24    -24.71     16.75
   31.5011     32.76     32.22    -24.81     16.75
   31.5113     32.27     32.20    -25.28     16.75
   31.5215     32.57     32.19    -24.97     16.75
   31.5316     32.91     32.17    -24.61     16.75
   31.5418     32.72     32.15    -24.78     16.74
   31.5520     31.87     32.14    -25.62     16.74
   31.5621     32.04     32.12    -25.43     16.74
   31.5723     31.79     32.11    -25.67     16.74
   31.5825     31.68     32.09    -25.77     16.74
   31.5926     31.91     32.08    -25.52     16.74
   31.6028     31.65     32.07    -25.77     16.74
   31.6130     31.48     32.06    -25.93     16.74
   31.6231     31.64     32.05    -25.76     16.74
   31.6333     31.16     32.04    -26.23     16.74
   31.6435     32.62     32.03    -24.76     16.74
   31.6536     31.74     32.02    -25.63     16.74
   31.6638     32.09     32.01    -25.27     16.74
   31.6739     31.77     32.00    -25.58     16.74
   31.6841     33.20     31.99    -24.14     16.74
   31.6943     31.32     31.98    -26.01     16.74
   31.7044     31.73     31.98    -25.60     16.74
   31.7146     31.99     31.97    -25.33     16.74
   31.7248     31.68     31.96    -25.64     16.74
   31.7349     31.59     31.96    -25.72     16.74
   31.7451     32.35     31.95    -24.96     16.74
   31.7553     31.36     31.95    -25.94     16.74
   31.7654     31.15     31.95    -26.15     16.74
   31.7756     31.63     31.94    -25.67     16.74
   31.7858     32.28     31.94    -25.01     16.74
   31.7959     31.06     31.94    -26.23     16.74
   31.8061     31.81     31.94    -25.48     16.74
   31.8162     31.21     31.94    -26.08     16.74
   31.8264     31.97     31.94    -25.32     16.74
   31.8366     31.28     31.94    -26.01     16.74
   31.8467     32.17     31.94    -25.12     16.74
   31.8569     31.49     31.94    -25.80     16.74
   31.8671     32.28     31.94    -25.01     16.74
   31.8772     32.12     31.94    -25.17     16.74
   31.8874     32.04     31.95    -25.26     16.74
   31.8976     31.91     31.95    -25.39     16.74
   31.9077     31.40     31.95    -25.90     16.74
   31.9179     32.14     31.96    -25.17     16.74
   31.9281     32.40     31.96    -24.91     16.74
   31.9382     31.62     31.97    -25.70     16.74
   31.9484     31.93     31.97    -25.39     16.74
   31.9586     32.00     31.98    -25.33     16.74
   31.9687     32.20     31.98    -25.14     16.74
   31.9789     31.63     31.99    -25.71     16.74
   31.9890     32.41     32.00    -24.94     16.74
   31.9992     31.17     32.01    -26.19     16.74
   32.0094     31.90     32.02    -25.47     16.74
   32.0195     32.57     32.02    -24.81     16.74
   32.0297     31.84     32.03    -25.54     16.74
   32.0399     31.52     32.04    -25.87     16.73
   32.0500     31.88     32.05    -25.52     16.73
   32.0602     31.46     32.06    -25.96     16.73
   32.0704     32.79     32.07    -24.64     16.73
   32.0805     31.77     32.09    -25.67     16.73
   32.0907     32.48     32.10    -24.97     16.73
   32.1009     31.76     32.11    -25.70     16.73
   32.1110     32.54     32.12    -24.93     16.73
   32.1212     31.40     32.13    -26.09     16.73
   32.1313     31.80     32.15    -25.70     16.73
   32.1415     32.51     32.16    -25.00     16.73
   32.1517     31.16     32.17    -26.37     16.73
   32.1618     31.98     32.19    -25.56     16.73
   32.1720     32.77     32.20    -24.79     16.73
   32.1822     31.42     32.22    -26.15     16.73
   32.1923     32.40     32.23    -25.19     16.73
   32.2025     31.30     32.25    -26.30     16.73
   32.2127     31.12     32.27    -26.50     16.73
   32.2228     32.18     32.28    -25.45     16.73
   32.2330     32.74     32.30    -24.91     16.73
   32.2432     31.22     32.31    -26.45     16.73
   32.2533     32.03     32.33    -25.65     16.73
   32.2635     32.95     32.35    -24.75     16.73
   32.2737     32.28     32.37    -25.44     16.73
   32.2838     32.57     32.38    -25.16     16.73
   32.2940     31.70     32.40    -26.05     16.73
   32.3041     31.73     32.42    -26.04     16.73
   32.3143     32.54     32.44    -25.25     16.73
   32.3245     32.42     32.45    -25.39     16.73
   32.3346     31.86     32.47    -25.96     16.73
   32.3448     32.93     32.49    -24.91     16.73
   32.3550     32.34     32.51    -25.52     16.73
   32.3651     33.24     32.53    -24.64     16.73
   32.3753     32.53     32.55    -25.37     16.73
   32.3855     31.99     32.57    -25.93     16.73
   32.3956     32.17     32.58    -25.77     16.73
   32.4058     32.36     32.60    -25.60     16.73
   32.4160     32.31     32.62    -25.66     16.73
   32.4261     32.37     32.64    -25.62     16.73
   32.4363     32.30     32.66    -25.71     16.73
   32.4464     32.09     32.68    -25.94     16.73
   32.4566     32.16     32.70    -25.89     16.73
   32.4668     31.73     32.72    -26.34     16.73
   32.4769     32.48     32.74    -25.61     16.73
   32.4871     32.25     32.75    -25.86     16.73
   32.4973     32.73     32.77    -25.39     16.73
   32.5074     32.31     32.79    -25.83     16.73
   32.5176     32.59     32.81    -25.57     16.73
   32.5278     32.20     32.83    -25.98     16.73
   32.5379     31.45     32.84    -26.75     16.72
   32.5481     32.48     32.86    -25.73     16.72
   32.5583     32.23     32.88    -26.00     16.72
   32.5684     32.64     32.90    -25.61     16.72
   32.5786     32.33     32.91    -25.93     16.72
   32.5888     31.57     32.93    -26.71     16.72
   32.5989     33.49     32.94    -24.81     16.72
   32.6091     32.80     32.96    -25.51     16.72
   32.6192     32.08     32.98    -26.25     16.72
   32.6294     32.85     32.99    -25.49     16.72
   32.6396     32.54     33.00    -25.82     16.72
   32.6497     32.18     33.02    -26.19     16.72
   32.6599     32.88     33.03    -25.50     16.72
   32.6701     32.25     33.05    -26.15     16.72
   32.6802     32.43     33.06    -25.98     16.72
   32.6904     32.41     33.07    -26.01     16.72
   32.7006     32.08     33.08    -26.35     16.72
   32.7107     31.27     33.09    -27.17     16.72
   32.7209     32.33     33.10    -26.12     16.72
   32.7311     32.41     33.11    -26.05     16.72
   32.7412     32.34     33.12    -26.13     16.72
   32.7514     32.39     33.13    -26.09     16.72
   32.7615     32.65     33.14    -25.84     16.72
   32.7717     32.78     33.14    -25.71     16.72
   32.7819     32.45     33.15    -26.05     16.72
   32.7920     32.34     33.15    -26.17     16.72
   32.8022     31.90     33.16    -26.61     16.72
   32.8124     32.00     33.16    -26.51     16.72
   32.8225     31.57     33.16    -26.95     16.72
   32.8327     32.30     33.17    -26.22     16.72
   32.8429     32.17     33.17    -26.35     16.72
   32.8530     31.88     33.17    -26.64     16.72
   32.8632     31.96     33.17    -26.56     16.72
   32.8734     32.40     33.17    -26.12     16.72
   32.8835     32.05     33.16    -26.47     16.72
   32.8937     32.64     33.16    -25.87     16.72
   32.9039     32.28     33.16    -26.23     16.72
   32.9140     32.20     33.15    -26.30     16.72
   32.9242     32.32     33.14    -26.18     16.72
   32.9343     32.29     33.14    -26.20     16.72
   32.9445     31.72     33.13    -26.76     16.72
   32.9547     32.13     33.12    -26.34     16.72
   32.9648     32.65     33.11    -25.81     16.72
   32.9750     32.40     33.10    -26.05     16.72
   32.9852     31.98     33.09    -26.46     16.72
   32.9953     31.32     33.07    -27.10     16.72
   33.0055     32.34     33.06    -26.07     16.72
   33.0157     32.15     33.04    -26.24     16.72
   33.0258     33.04     33.03    -25.34     16.72
   33.0360     31.94     33.01    -26.42     16.72
   33.0462     32.00     32.99    -26.34     16.71
   33.0563     32.29     32.97    -26.03     16.71
   33.0665     32.66     32.95    -25.64     16.71
   33.0766     31.98     32.93    -26.30     16.71
   33.0868     31.91     32.90    -26.35     16.71
   33.0970     31.91     32.88    -26.32     16.71
   33.1071     31.88     32.86    -26.33     16.71
   33.1173     33.57     32.83    -24.61     16.71
   33.1275     32.50     32.80    -25.66     16.71
   33.1376     31.85     32.78    -26.28     16.71
   33.1478     32.59     32.75    -25.51     16.71
   33.1580     32.16     32.72    -25.91     16.71
   33.1681     32.62     32.69    -25.42     16.71
   33.1783     32.45     32.65    -25.56     16.71
   33.1885     32.60     32.62    -25.37     16.71
   33.1986     32.76     32.59    -25.18     16.71
   33.2088     32.81     32.55    -25.09     16.71
   33.2189     33.34     32.52    -24.53     16.71
   33.2291     32.07     32.48    -25.76     16.71
   33.2393     31.96     32.44    -25.84     16.71
   33.2494     32.07     32.41    -25.69     16.71
   33.2596     32.70     32.37    -25.02     16.71
   33.2698     32.63     32.33    -25.05     16.71
   33.2799     32.38     32.29    -25.26     16.71
   33.2901     32.74     32.24    -24.86     16.71
   33.3003     33.03     32.20    -24.52     16.71
   33.3104     32.67     32.16    -24.84     16.71
   33.3206     33.08     32.11    -24.39     16.71
   33.3308     32.09     32.07    -25.33     16.71
   33.3409     32.46     32.02    -24.92     16.71
   33.3511     33.62     31.98    -23.71     16.71
   33.3613     32.50     31.93    -24.78     16.71
   33.3714     32.43     31.88    -24.81     16.71
   33.3816     33.67     31.84    -23.52     16.71
   33.3917     32.45     31.79    -24.69     16.71
   33.4019     32.27     31.74    -24.82     16.71
   33.4121     32.77     31.69    -24.27     16.71
   33.4222     32.00     31.64    -24.99     16.71
   33.4324     33.82     31.59    -23.12     16.71
   33.4426     33.16     31.54    -23.73     16.71
   33.4527     32.34     31.49    -24.50     16.71
   33.4629     31.98     31.43    -24.81     16.71
   33.4731     33.10     31.38    -23.63     16.71
   33.4832     32.20     31.33    -24.48     16.71
   33.4934     32.59     31.27    -24.04     16.71
   33.5036     32.74     31.22    -23.83     16.71
   33.5137     32.65     31.17    -23.87     16.71
   33.5239     32.05     31.11    -24.41     16.71
   33.5340     32.60     31.06    -23.81     16.71
   33.5442     32.74     31.00    -23.61     16.70
   33.5544     32.20     30.95    -24.10     16.70
   33.5645     32.56     30.89    -23.68     16.70
   33.5747     32.54     30.84    -23.65     16.70
   33.5849     32.68     30.78    -23.45     16.70
   33.5950     32.65     30.72    -23.43     16.70
   33.6052     31.95     30.67    -24.07     16.70
   33.6154     31.43     30.61    -24.53     16.70
   33.6255     32.29     30.55    -23.62     16.70
   33.6357     31.45     30.50    -24.40     16.70
   33.6459     32.32     30.44    -23.47     16.70
   33.6560     32.88     30.38    -22.86     16.70
   33.6662     32.15     30.33    -23.53     16.70
   33.6764     31.48     30.27    -24.14     16.70
   33.6865     31.54     30.21    -24.02     16.70
   33.6967     31.16     30.15    -24.35     16.70
   33.7068     31.54     30.10    -23.91     16.70
   33.7170     31.86     30.04    -23.53     16.70
   33.7272     31.58     29.98    -23.76     16.70
   33.7373     31.36     29.93    -23.92     16.70
   33.7475     31.39     29.87    -23.83     16.70
   33.7577     31.06     29.81    -24.10     16.70
   33.7678     31.37     29.76    -23.74     16.70
   33.7780     31.41     29.70    -23.64     16.70
   33.7882     30.91     29.64    -24.08     16.70
   33.7983     30.65     29.58    -24.29     16.70
   33.8085     30.57     29.53    -24.31     16.70
   33.8187     30.68     29.47    -24.14     16.70
   33.8288     29.56     29.41    -25.21     16.70
   33.8390     30.05     29.36    -24.66     16.70
   33.8491     29.61     29.30    -25.04     16.70
   33.8593     29.87     29.25    -24.73     16.70
   33.8695     29.37     29.19    -25.17     16.70
   33.8796     29.16     29.14    -25.33     16.70
   33.8898     29.79     29.08    -24.64     16.70
   33.9000     29.20     29.02    -25.18     16.70
   33.9101     29.83     28.97    -24.49     16.70
   33.9203     29.55     28.91    -24.72     16.70
   33.9305     28.99     28.86    -25.22     16.70
   33.9406     29.12     28.81    -25.04     16.70
   33.9508     29.18     28.75    -24.92     16.70
   33.9610     28.36     28.70    -25.69     16.70
   33.9711     28.82     28.64    -25.18     16.70
   33.9813     28.13     28.59    -25.81     16.70
   33.9915     29.05     28.54    -24.84     16.70
   34.0016     28.51     28.48    -25.33     16.70
   34.0118     28.24     28.43    -25.54     16.70
   34.0219     28.91     28.38    -24.82     16.70
   34.0321     28.37     28.33    -25.31     16.70
   34.0423     28.73     28.27    -24.90     16.69
   34.0524     28.07     28.22    -25.51     16.69
   34.0626     28.04     28.17    -25.48     16.69
   34.0728     28.24     28.12    -25.23     16.69
   34.0829     27.84     28.07    -25.58     16.69
   34.0931     27.73     28.02    -25.64     16.69
   34.1033     27.90     27.97    -25.42     16.69
   34.1134     28.04     27.92    -25.23     16.69
   34.1236     27.90     27.87    -25.32     16.69
   34.1338     27.26     27.82    -25.91     16.69
   34.1439     27.16     27.77    -25.96     16.69
   34.1541     27.10     27.72    -25.97     16.69
   34.1642     27.16     27.67    -25.87     16.69
   34.1744     26.54     27.63    -26.44     16.69
   34.1846     26.96     27.58    -25.97     16.69
   34.1947     26.60     27.53    -26.28     16.69
   34.2049     27.55     27.48    -25.29     16.69
   34.2151     27.09     27.44    -25.70     16.69
   34.2252     27.43     27.39    -25.31     16.69
   34.2354     27.27     27.34    -25.43     16.69
   34.2456     26.76     27.30    -25.89     16.69
   34.2557     27.61     27.25    -24.99     16.69
   34.2659     26.83     27.21    -25.73     16.69
   34.2761     26.58     27.16    -25.93     16.69
   34.2862     26.65     27.12    -25.82     16.69
   34.2964     26.63     27.07    -25.80     16.69
   34.3066     26.62     27.03    -25.76     16.69
   34.3167     26.55     26.99    -25.79     16.69
   34.3269     26.33     26.94    -25.96     16.69
   34.3370     26.55     26.90    -25.70     16.69
   34.3472     26.91     26.86    -25.30     16.69
   34.3574     25.21     26.81    -26.96     16.69
   34.3675     26.63     26.77    -25.49     16.69
   34.3777     26.47     26.73    -25.61     16.69
   34.3879     26.07     26.69    -25.97     16.69
   34.3980     26.24     26.65    -25.76     16.69
   34.4082     25.87     26.61    -26.09     16.69
   34.4184     25.87     26.57    -26.05     16.69
   34.4285     25.76     26.53    -26.12     16.69
   34.4387     25.74     26.49    -26.10     16.69
   34.4489     26.39     26.45    -25.41     16.69
   34.4590     25.39     26.41    -26.37     16.69
   34.4692     25.68     26.37    -26.04     16.69
   34.4793     25.07     26.33    -26.61     16.69
   34.4895     25.18     26.29    -26.46     16.69
   34.4997     25.53     26.25    -26.08     16.69
   34.5098     25.83     26.22    -25.74     16.69
   34.5200     25.75     26.18    -25.78     16.69
   34.5302     25.43     26.14    -26.06     16.69
   34.5403     25.80     26.11    -25.66     16.68
   34.5505     25.95     26.07    -25.47     16.68
   34.5607     25.77     26.03    -25.61     16.68
   34.5708     24.73     26.00    -26.62     16.68
   34.5810     26.33     25.96    -24.98     16.68
   34.5912     25.69     25.93    -25.59     16.68
   34.6013     25.28     25.89    -25.96     16.68
   34.6115     25.32     25.86    -25.89     16.68
   34.6217     25.29     25.82    -25.88     16.68
   34.6318     25.82     25.79    -25.32     16.68
   34.6420     25.57     25.75    -25.54     16.68
   34.6521     26.00     25.72    -25.07     16.68
   34.6623     25.44     25.69    -25.60     16.68
   34.6725     25.15     25.65    -25.86     16.68
   34.6826     25.41     25.62    -25.56     16.68
   34.6928     25.38     25.59    -25.56     16.68
   34.7030     24.69     25.56    -26.22     16.68
   34.7131     25.79     25.52    -25.09     16.68
   34.7233     25.93     25.49    -24.92     16.68
   34.7335     25.18     25.46    -25.63     16.68
   34.7436     25.58     25.43    -25.20     16.68
   34.7538     24.76     25.40    -25.99     16.68
   34.7640     24.86     25.37    -25.86     16.68
   34.7741     24.60     25.34    -26.09     16.68
   34.7843     25.30     25.31    -25.36     16.68
   34.7944     24.88     25.28    -25.75     16.68
   34.8046     25.52     25.25    -25.08     16.68
   34.8148     25.21     25.22    -25.36     16.68
   34.8249     24.88     25.19    -25.66     16.68
   34.8351     25.12     25.16    -25.40     16.68
   34.8453     25.62     25.13    -24.87     16.68
   34.8554     24.64     25.11    -25.82     16.68
   34.8656     25.55     25.08    -24.88     16.68
   34.8758     24.62     25.05    -25.78     16.68
   34.8859     24.78     25.02    -25.60     16.68
   34.8961     24.39     25.00    -25.96     16.68
   34.9063     25.41     24.97    -24.91     16.68
   34.9164     25.25     24.94    -25.04     16.68
   34.9266     25.01     24.92    -25.26     16.68
   34.9367     25.39     24.89    -24.85     16.68
   34.9469     24.74     24.86    -25.48     16.68
   34.9571     24.07     24.84    -26.12     16.68
   34.9672     25.16     24.81    -25.00     16.68
   34.9774     24.73     24.79    -25.41     16.68
   34.9876     25.20     24.76    -24.91     16.68
   34.9977     24.54     24.74    -25.55     16.68
   35.0079     25.16     24.71    -24.90     16.68
   35.0181     25.53     24.69    -24.51     16.68
   35.0282     24.70     24.66    -25.32     16.68
   35.0384     25.26     24.64    -24.73     16.67
   35.0486     24.24     24.62    -25.73     16.67
   35.0587     24.77     24.59    -25.17     16.67
   35.0689     25.35     24.57    -24.57     16.67
   35.0791     25.27     24.54    -24.63     16.67
   35.0892     24.59     24.52    -25.28     16.67
   35.0994     25.37     24.50    -24.48     16.67
   35.1095     24.56     24.48    -25.27     16.67
   35.1197     24.71     24.45    -25.10     16.67
   35.1299     23.81     24.43    -25.97     16.67
   35.1400     25.16     24.41    -24.60     16.67
   35.1502     25.34     24.39    -24.40     16.67
   35.1604     24.96     24.37    -24.76     16.67
   35.1705     24.82     24.34    -24.88     16.67
   35.1807     24.74     24.32    -24.93     16.67
   35.1909     25.10     24.30    -24.55     16.67
   35.2010     24.14     24.28    -25.49     16.67
   35.2112     24.99     24.26    -24.62     16.67
   35.2214     24.90     24.24    -24.69     16.67
   35.2315     23.85     24.22    -25.72     16.67
   35.2417     24.59     24.20    -24.96     16.67
   35.2518     24.85     24.18    -24.68     16.67
   35.2620     25.09     24.16    -24.42     16.67
   35.2722     24.71     24.14    -24.78     16.67
   35.2823     23.92     24.12    -25.55     16.67
   35.2925     23.80     24.10    -25.65     16.67
   35.3027     24.73     24.08    -24.70     16.67
   35.3128     25.05     24.06    -24.36     16.67
   35.3230     23.84     24.04    -25.55     16.67
   35.3332     24.09     24.02    -25.28     16.67
   35.3433     24.62     24.00    -24.74     16.67
   35.3535     24.96     23.98    -24.38     16.67
   35.3637     23.88     23.97    -25.44     16.67
   35.3738     24.24     23.95    -25.06     16.67
   35.3840     24.29     23.93    -24.99     16.67
   35.3942     24.91     23.91    -24.35     16.67
   35.4043     24.69     23.89    -24.56     16.67
   35.4145     24.77     23.88    -24.46     16.67
   35.4246     24.23     23.86    -24.98     16.67
   35.4348     23.95     23.84    -25.24     16.67
   35.4450     24.40     23.82    -24.78     16.67
   35.4551     23.84     23.81    -25.32     16.67
   35.4653     23.76     23.79    -25.38     16.67
   35.4755     24.73     23.77    -24.39     16.67
   35.4856     24.93     23.75    -24.18     16.67
   35.4958     24.21     23.74    -24.88     16.67
   35.5060     23.81     23.72    -25.26     16.67
   35.5161     23.90     23.71    -25.16     16.67
   35.5263     24.17     23.69    -24.87     16.67
   35.5365     24.54     23.67    -24.48     16.66
   35.5466     24.54     23.66    -24.47     16.66
   35.5568     24.50     23.64    -24.49     16.66
   35.5669     23.80     23.62    -25.18     16.66
   35.5771     24.13     23.61    -24.83     16.66
   35.5873     24.30     23.59    -24.64     16.66
   35.5974     23.96     23.58    -24.97     16.66
   35.6076     24.29     23.56    -24.62     16.66
   35.6178     23.37     23.55    -25.53     16.66
   35.6279     24.27     23.53    -24.61     16.66
   35.6381     24.24     23.52    -24.63     16.66
   35.6483     24.20     23.50    -24.65     16.66
   35.6584     24.03     23.49    -24.81     16.66
   35.6686     23.82     23.47    -25.00     16.66
   35.6788     24.39     23.46    -24.42     16.66
   35.6889     25.04     23.44    -23.75     16.66
   35.6991     23.48     23.43    -25.30     16.66
   35.7093     24.74     23.41    -24.02     16.66
   35.7194     24.34     23.40    -24.41     16.66
   35.7296     23.58     23.38    -25.16     16.66
   35.7397     24.41     23.37    -24.31     16.66
   35.7499     24.35     23.36    -24.36     16.66
   35.7601     24.27     23.34    -24.42     16.66
   35.7702     24.04     23.33    -24.64     16.66
   35.7804     24.07     23.31    -24.60     16.66
   35.7906     23.98     23.30    -24.67     16.66
   35.8007     23.74     23.29    -24.90     16.66
   35.8109     24.70     23.27    -23.92     16.66
   35.8211     24.84     23.26    -23.77     16.66
   35.8312     24.11     23.25    -24.49     16.66
   35.8414     23.74     23.23    -24.84     16.66
   35.8516     24.27     23.22    -24.30     16.66
   35.8617     23.76     23.21    -24.80     16.66
   35.8719     24.06     23.19    -24.49     16.66
   35.8820     23.57     23.18    -24.96     16.66
   35.8922     23.91     23.17    -24.61     16.66
   35.9024     24.49     23.15    -24.02     16.66
   35.9125     23.69     23.14    -24.80     16.66
   35.9227     24.07     23.13    -24.41     16.66
   35.9329     23.65     23.12    -24.82     16.66
   35.9430     23.71     23.10    -24.75     16.66
   35.9532     23.67     23.09    -24.77     16.66
   35.9634     23.74     23.08    -24.69     16.66
   35.9735     24.07     23.07    -24.35     16.66
   35.9837     23.46     23.05    -24.95     16.66
   35.9939     23.85     23.04    -24.54     16.66
   36.0040     24.10     23.03    -24.28     16.66
   36.0142     23.15     23.02    -25.22     16.66
