! WinPLOTR profile fitting results:
!   data file: G102--5-40-0.01-1000ms.xy
!    wave (A):      1.54060     1.54060     0.50000
!
!   2theta(deg.) sig_2th        d(A)   Intensity     sig_int         FWHM    FWHM_sig         ETA     ETA_sig
!------------------------------------------------------------------------------------------------------------------
   18.795578    0.006320     4.71743      164.80        3.60     0.857340    0.205790    0.423338    0.026423
   20.629330    0.022836     4.30205       94.52        6.18     1.470710    0.235704    0.423338    0.026423
   22.632776    0.012304     3.92556      130.31        4.62     1.211733    0.206001    0.423338    0.026423
   28.695154    0.021197     3.10851       44.89        2.44     1.179987    0.203318    0.423338    0.026423
   30.192144    0.000000     2.95771       20.38        3.02     2.655888    0.452324    0.423338    0.026423
   33.450291    0.000000     2.67669        5.73        1.25     1.029320    0.339118    0.423338    0.026423
   17.222221    0.000000     5.14469       96.29        6.41     3.102656    0.104032    0.423338    0.026423
   20.334167    0.000000     4.36383      700.69       13.79    10.783072    0.406188    0.423338    0.026423
   18.799593    0.006317     4.71644      132.64        2.84     0.823693    3.702881    0.093147    0.026236
   20.613600    0.026126     4.30530       63.81        6.95     1.411380    3.701928    0.093147    0.026236
   22.640350    0.012201     3.92427      101.29        3.60     1.166333    3.702820    0.093147    0.026236
   28.684727    0.024101     3.10962       23.95        2.87     0.917526    3.702136    0.093147    0.026236
   29.173891    0.101058     3.05858       61.33        4.91     3.586442    3.690725    0.093147    0.026236
   33.116745    0.102281     2.70288       13.23        2.04     1.813152    3.694432    0.093147    0.026236
   17.500000    0.000000     5.06365       38.77        7.63     2.013626    3.697254    0.093147    0.026236
   19.956511    0.056632     4.44555      716.44       17.89     9.563470    3.695855    0.093147    0.026236
