 => TITLE: 
 => Data file name: C:\Users\stefano\Nextcloud2\uni\master-thesis\XRD\data\G307\G307--5-40-0.01-1000ms.xy
 => Instrm        :    1
 => Lambda(1&2)   :   1.54060  1.54060
 => Numb.of.points:      2951
 => Numb.of.peaks :         8
    2Theta     Yobs     Ycalc  Yobs-Ycal    Backg    Bragg     Posr  Intensity   FWHM    Eta
    6.0086     24.06     25.73    -22.44     24.00   18.5782      0.90     126.97  0.9154  0.1836
    6.0187     23.84     25.74    -22.67     24.00   20.2432      0.90      72.66  1.7831  0.1836
    6.0289     24.98     25.74    -21.53     24.00   22.3976      0.90      81.22  1.2239  0.1836
    6.0391     24.17     25.75    -22.35     24.00   28.3684      0.90      39.18  1.4711  0.1836
    6.0492     23.44     25.75    -23.08     24.00   29.9206      0.90      26.23  1.9893  0.1836
    6.0594     24.16     25.76    -22.37     24.00   33.4085      0.90      13.90  1.9893  0.1836
    6.0696     24.27     25.76    -22.26     24.00   17.2142      0.90      55.22  1.9893  0.1836
    6.0797     24.07     25.77    -22.47     24.00   19.7984      0.90     882.19 10.2357  0.1836
    6.0899     23.75     25.77    -22.79     24.00
    6.1001     22.95     25.78    -23.60     24.00
    6.1102     24.10     25.78    -22.45     24.00
    6.1204     23.40     25.79    -23.16     24.00
    6.1306     23.47     25.80    -23.10     24.00
    6.1407     24.14     25.80    -22.43     24.00
    6.1509     23.15     25.81    -23.43     24.00
    6.1611     23.56     25.81    -23.02     24.00
    6.1712     23.35     25.82    -23.24     24.00
    6.1814     24.32     25.82    -22.27     24.00
    6.1915     23.98     25.83    -22.62     24.00
    6.2017     23.91     25.83    -22.69     24.00
    6.2119     23.66     25.84    -22.95     24.00
    6.2220     24.14     25.84    -22.47     24.00
    6.2322     23.69     25.85    -22.93     24.00
    6.2424     22.83     25.85    -23.79     24.00
    6.2525     22.77     25.86    -23.86     24.00
    6.2627     24.59     25.87    -22.05     24.00
    6.2729     23.29     25.87    -23.35     24.00
    6.2830     22.91     25.88    -23.74     24.00
    6.2932     23.85     25.88    -22.80     24.00
    6.3034     23.29     25.89    -23.37     24.00
    6.3135     23.91     25.89    -22.75     24.00
    6.3237     23.38     25.90    -23.29     24.00
    6.3338     22.57     25.90    -24.10     24.00
    6.3440     23.22     25.91    -23.46     24.00
    6.3542     23.12     25.92    -23.57     24.00
    6.3643     23.34     25.92    -23.35     24.00
    6.3745     22.91     25.93    -23.79     24.00
    6.3847     23.21     25.93    -23.49     24.00
    6.3948     23.62     25.94    -23.09     24.00
    6.4050     22.73     25.95    -23.99     24.00
    6.4152     23.36     25.95    -23.36     24.00
    6.4253     23.81     25.96    -22.92     24.00
    6.4355     23.11     25.96    -23.62     24.00
    6.4457     23.01     25.97    -23.73     24.00
    6.4558     23.82     25.98    -22.93     24.00
    6.4660     23.65     25.98    -23.10     24.00
    6.4762     23.46     25.99    -23.30     24.00
    6.4863     23.95     25.99    -22.81     24.00
    6.4965     23.23     26.00    -23.54     24.00
    6.5066     23.34     26.01    -23.44     24.00
    6.5168     23.77     26.01    -23.01     24.00
    6.5270     22.82     26.02    -23.97     24.00
    6.5371     23.98     26.03    -22.82     24.00
    6.5473     23.84     26.03    -22.96     24.00
    6.5575     23.08     26.04    -23.73     24.00
    6.5676     23.36     26.05    -23.46     24.00
    6.5778     23.56     26.05    -23.26     24.00
    6.5880     22.88     26.06    -23.95     24.00
    6.5981     22.91     26.06    -23.92     24.00
    6.6083     23.43     26.07    -23.41     24.00
    6.6185     24.28     26.08    -22.57     24.00
    6.6286     24.14     26.08    -22.71     24.00
    6.6388     23.79     26.09    -23.07     24.00
    6.6489     22.89     26.10    -23.98     24.00
    6.6591     23.15     26.10    -23.72     24.00
    6.6693     23.58     26.11    -23.30     24.00
    6.6794     23.94     26.12    -22.95     24.00
    6.6896     23.20     26.13    -23.70     24.00
    6.6998     23.52     26.13    -23.38     24.00
    6.7099     23.79     26.14    -23.12     24.00
    6.7201     23.58     26.15    -23.34     24.00
    6.7303     23.76     26.15    -23.16     24.00
    6.7404     23.66     26.16    -23.27     24.00
    6.7506     23.52     26.17    -23.42     24.00
    6.7608     23.51     26.17    -23.43     24.00
    6.7709     24.15     26.18    -22.80     24.00
    6.7811     23.87     26.19    -23.09     24.00
    6.7913     23.32     26.20    -23.65     24.00
    6.8014     24.26     26.20    -22.71     24.00
    6.8116     24.26     26.21    -22.72     24.00
    6.8217     23.29     26.22    -23.70     24.00
    6.8319     23.65     26.23    -23.35     24.00
    6.8421     23.65     26.23    -23.35     24.00
    6.8522     23.88     26.24    -23.13     24.00
    6.8624     24.22     26.25    -22.80     24.00
    6.8726     25.07     26.26    -21.96     24.00
    6.8827     23.89     26.26    -23.14     24.00
    6.8929     23.68     26.27    -23.36     24.00
    6.9031     23.55     26.28    -23.50     24.00
    6.9132     24.71     26.29    -22.35     24.00
    6.9234     23.87     26.29    -23.19     24.00
    6.9336     23.92     26.30    -23.15     24.00
    6.9437     24.67     26.31    -22.41     24.00
    6.9539     23.09     26.32    -24.00     24.00
    6.9640     24.85     26.32    -22.24     24.00
    6.9742     24.31     26.33    -22.79     24.00
    6.9844     23.59     26.34    -23.52     24.00
    6.9945     23.85     26.35    -23.27     24.00
    7.0047     24.54     26.36    -22.59     24.00
    7.0149     23.62     26.36    -23.51     24.00
    7.0250     23.75     26.37    -23.39     24.00
    7.0352     23.95     26.38    -23.20     24.00
    7.0454     24.15     26.39    -23.01     24.00
    7.0555     24.39     26.40    -22.78     24.00
    7.0657     23.85     26.41    -23.33     24.00
    7.0759     24.30     26.41    -22.88     24.00
    7.0860     23.91     26.42    -23.28     24.00
    7.0962     23.71     26.43    -23.49     24.00
    7.1064     24.75     26.44    -22.46     24.00
    7.1165     24.46     26.45    -22.76     24.00
    7.1267     23.88     26.46    -23.35     24.00
    7.1368     25.13     26.46    -22.10     24.00
    7.1470     24.25     26.47    -22.99     24.00
    7.1572     25.01     26.48    -22.24     24.00
    7.1673     24.60     26.49    -22.66     24.00
    7.1775     24.25     26.50    -23.02     24.00
    7.1877     24.46     26.51    -22.82     24.00
    7.1978     24.21     26.52    -23.08     24.00
    7.2080     25.01     26.53    -22.29     24.00
    7.2182     24.48     26.53    -22.82     24.00
    7.2283     24.31     26.54    -23.00     24.00
    7.2385     24.73     26.55    -22.59     24.00
    7.2487     25.23     26.56    -22.10     24.00
    7.2588     25.02     26.57    -22.32     24.00
    7.2690     23.92     26.58    -23.43     24.00
    7.2791     24.34     26.59    -23.02     24.00
    7.2893     25.06     26.60    -22.31     24.00
    7.2995     24.96     26.61    -22.42     24.00
    7.3096     25.01     26.62    -22.38     24.00
    7.3198     24.88     26.63    -22.52     24.00
    7.3300     25.08     26.64    -22.33     24.00
    7.3401     24.37     26.65    -23.05     24.00
    7.3503     25.32     26.65    -22.10     24.00
    7.3605     25.22     26.66    -22.21     24.00
    7.3706     24.52     26.67    -22.92     24.00
    7.3808     25.30     26.68    -22.15     24.00
    7.3910     24.76     26.69    -22.70     24.00
    7.4011     24.79     26.70    -22.68     24.00
    7.4113     25.68     26.71    -21.80     24.00
    7.4215     25.55     26.72    -21.94     24.00
    7.4316     25.49     26.73    -22.01     24.00
    7.4418     25.11     26.74    -22.40     24.00
    7.4519     24.95     26.75    -22.57     24.00
    7.4621     25.21     26.76    -22.32     24.00
    7.4723     25.42     26.77    -22.12     24.00
    7.4824     24.87     26.78    -22.68     24.00
    7.4926     25.28     26.79    -22.28     24.00
    7.5028     25.74     26.80    -21.83     24.00
    7.5129     25.20     26.81    -22.38     24.00
    7.5231     24.66     26.82    -22.93     24.00
    7.5333     24.97     26.83    -22.63     24.00
    7.5434     24.60     26.84    -23.01     24.00
    7.5536     25.00     26.86    -22.63     24.00
    7.5638     26.29     26.87    -21.35     24.00
    7.5739     25.12     26.88    -22.53     24.00
    7.5841     25.28     26.89    -22.38     24.00
    7.5942     26.01     26.90    -21.66     24.00
    7.6044     25.51     26.91    -22.17     24.00
    7.6146     25.77     26.92    -21.92     24.00
    7.6247     25.30     26.93    -22.40     24.00
    7.6349     25.32     26.94    -22.39     24.00
    7.6451     26.30     26.95    -21.42     24.00
    7.6552     26.04     26.96    -21.69     24.00
    7.6654     25.95     26.97    -21.79     24.00
    7.6756     25.77     26.99    -21.99     24.00
    7.6857     25.63     27.00    -22.14     24.00
    7.6959     26.20     27.01    -21.58     24.00
    7.7061     26.60     27.02    -21.19     24.00
    7.7162     25.72     27.03    -22.08     24.00
    7.7264     24.84     27.04    -22.97     24.00
    7.7365     25.35     27.05    -22.47     24.00
    7.7467     25.71     27.07    -22.13     24.00
    7.7569     25.80     27.08    -22.05     24.00
    7.7670     25.41     27.09    -22.45     24.00
    7.7772     25.51     27.10    -22.36     24.00
    7.7874     25.59     27.11    -22.29     24.00
    7.7975     25.70     27.12    -22.19     24.00
    7.8077     26.24     27.14    -21.67     24.00
    7.8179     25.89     27.15    -22.03     24.00
    7.8280     26.37     27.16    -21.56     24.00
    7.8382     25.85     27.17    -22.09     24.00
    7.8484     24.65     27.18    -23.30     24.00
    7.8585     26.13     27.20    -21.84     24.00
    7.8687     26.73     27.21    -21.25     24.00
    7.8789     25.62     27.22    -22.37     24.00
    7.8890     25.33     27.23    -22.67     24.00
    7.8992     27.06     27.25    -20.96     24.00
    7.9093     25.61     27.26    -22.42     24.00
    7.9195     26.77     27.27    -21.27     24.00
    7.9297     26.35     27.28    -21.70     24.00
    7.9398     25.68     27.30    -22.39     24.00
    7.9500     26.93     27.31    -21.15     24.00
    7.9602     26.62     27.32    -21.47     24.00
    7.9703     27.41     27.33    -20.69     24.00
    7.9805     26.81     27.35    -21.31     24.00
    7.9907     26.51     27.36    -21.62     24.00
    8.0008     26.39     27.37    -21.75     24.00
    8.0110     26.56     27.39    -21.60     24.00
    8.0212     27.21     27.40    -20.96     24.00
    8.0313     26.91     27.41    -21.27     24.00
    8.0415     27.37     27.43    -20.83     24.00
    8.0516     26.39     27.44    -21.82     24.00
    8.0618     26.13     27.45    -22.09     24.00
    8.0720     26.55     27.47    -21.69     24.00
    8.0821     26.59     27.48    -21.66     24.00
    8.0923     26.24     27.49    -22.02     24.00
    8.1025     27.00     27.51    -21.28     24.00
    8.1126     27.30     27.52    -20.99     24.00
    8.1228     26.94     27.53    -21.36     24.00
    8.1330     27.64     27.55    -20.68     24.00
    8.1431     27.38     27.56    -20.95     24.00
    8.1533     26.71     27.58    -21.64     24.00
    8.1635     26.91     27.59    -21.45     24.00
    8.1736     27.51     27.60    -20.86     24.00
    8.1838     27.26     27.62    -21.13     24.00
    8.1940     27.29     27.63    -21.11     24.00
    8.2041     27.20     27.65    -21.22     24.00
    8.2143     26.71     27.66    -21.72     24.00
    8.2244     28.02     27.68    -20.43     24.00
    8.2346     27.74     27.69    -20.72     24.00
    8.2448     27.01     27.71    -21.47     24.00
    8.2549     27.37     27.72    -21.12     24.00
    8.2651     27.83     27.73    -20.67     24.00
    8.2753     27.55     27.75    -20.97     24.00
    8.2854     26.65     27.76    -21.88     24.00
    8.2956     27.93     27.78    -20.62     24.00
    8.3058     26.72     27.79    -21.84     24.00
    8.3159     27.94     27.81    -20.64     24.00
    8.3261     26.90     27.82    -21.69     24.00
    8.3363     27.46     27.84    -21.15     24.00
    8.3464     27.30     27.86    -21.33     24.00
    8.3566     28.21     27.87    -20.43     24.00
    8.3667     26.90     27.89    -21.76     24.00
    8.3769     27.90     27.90    -20.77     24.00
    8.3871     28.20     27.92    -20.49     24.00
    8.3972     28.15     27.93    -20.55     24.00
    8.4074     27.84     27.95    -20.88     24.00
    8.4176     27.29     27.97    -21.45     24.00
    8.4277     27.47     27.98    -21.28     24.00
    8.4379     28.14     28.00    -20.63     24.00
    8.4481     27.33     28.01    -21.45     24.00
    8.4582     27.59     28.03    -21.21     24.00
    8.4684     28.27     28.05    -20.55     24.00
    8.4786     27.87     28.06    -20.96     24.00
    8.4887     27.37     28.08    -21.48     24.00
    8.4989     28.07     28.09    -20.79     24.00
    8.5091     28.37     28.11    -20.51     24.00
    8.5192     28.55     28.13    -20.35     24.00
    8.5294     28.65     28.14    -20.26     24.00
    8.5395     27.89     28.16    -21.04     24.00
    8.5497     27.52     28.18    -21.43     24.00
    8.5599     27.56     28.19    -21.40     24.00
    8.5700     28.44     28.21    -20.54     24.00
    8.5802     27.56     28.23    -21.44     24.00
    8.5904     28.56     28.25    -20.46     24.00
    8.6005     27.99     28.26    -21.04     24.00
    8.6107     27.81     28.28    -21.24     24.00
    8.6209     28.80     28.30    -20.27     24.00
    8.6310     28.29     28.32    -20.80     24.00
    8.6412     27.44     28.33    -21.66     24.00
    8.6514     28.85     28.35    -20.27     24.00
    8.6615     27.85     28.37    -21.29     24.00
    8.6717     28.47     28.39    -20.69     24.00
    8.6818     28.60     28.40    -20.57     24.00
    8.6920     28.65     28.42    -20.54     24.00
    8.7022     28.04     28.44    -21.17     24.00
    8.7123     29.10     28.46    -20.13     24.00
    8.7225     28.87     28.48    -20.38     24.00
    8.7327     27.98     28.49    -21.29     24.00
    8.7428     28.61     28.51    -20.67     24.00
    8.7530     29.41     28.53    -19.89     24.00
    8.7632     28.99     28.55    -20.33     24.00
    8.7733     29.30     28.57    -20.04     24.00
    8.7835     28.74     28.59    -20.62     24.00
    8.7937     29.45     28.61    -19.93     24.00
    8.8038     29.03     28.63    -20.37     24.00
    8.8140     29.10     28.64    -20.31     24.00
    8.8242     29.45     28.66    -19.98     24.00
    8.8343     28.98     28.68    -20.47     24.00
    8.8445     28.74     28.70    -20.73     24.00
    8.8546     28.47     28.72    -21.02     24.00
    8.8648     29.57     28.74    -19.94     24.00
    8.8750     29.39     28.76    -20.14     24.00
    8.8851     27.98     28.78    -21.57     24.00
    8.8953     29.46     28.80    -20.11     24.00
    8.9055     28.88     28.82    -20.71     24.00
    8.9156     29.28     28.84    -20.33     24.00
    8.9258     28.96     28.86    -20.67     24.00
    8.9360     29.35     28.88    -20.30     24.00
    8.9461     30.04     28.90    -19.63     24.00
    8.9563     29.51     28.92    -20.18     24.00
    8.9665     28.52     28.94    -21.19     24.00
    8.9766     29.70     28.96    -20.03     24.00
    8.9868     29.57     28.98    -20.18     24.00
    8.9969     29.09     29.00    -20.68     24.00
    9.0071     29.27     29.02    -20.52     24.00
    9.0173     29.37     29.04    -20.44     24.00
    9.0274     29.77     29.06    -20.06     24.00
    9.0376     29.64     29.08    -20.21     24.00
    9.0478     30.02     29.11    -19.86     24.00
    9.0579     29.64     29.13    -20.26     24.00
    9.0681     29.50     29.15    -20.42     24.00
    9.0783     29.34     29.17    -20.60     24.00
    9.0884     30.27     29.19    -19.69     24.00
    9.0986     30.35     29.21    -19.63     24.00
    9.1088     29.90     29.23    -20.10     24.00
    9.1189     29.55     29.26    -20.48     24.00
    9.1291     29.02     29.28    -21.03     24.00
    9.1393     29.43     29.30    -20.64     24.00
    9.1494     29.59     29.32    -20.50     24.00
    9.1596     29.07     29.34    -21.04     24.00
    9.1697     29.92     29.37    -20.22     24.00
    9.1799     29.37     29.39    -20.79     24.00
    9.1901     30.14     29.41    -20.04     24.00
    9.2002     29.87     29.43    -20.33     24.00
    9.2104     30.22     29.46    -20.01     24.00
    9.2206     29.70     29.48    -20.55     24.00
    9.2307     30.62     29.50    -19.65     24.00
    9.2409     30.46     29.52    -19.83     24.00
    9.2511     30.13     29.55    -20.19     24.00
    9.2612     29.72     29.57    -20.62     24.00
    9.2714     30.71     29.59    -19.65     24.00
    9.2816     30.29     29.62    -20.10     24.00
    9.2917     30.07     29.64    -20.34     24.00
    9.3019     30.34     29.66    -20.09     24.00
    9.3120     30.82     29.69    -19.64     24.00
    9.3222     31.30     29.71    -19.18     24.00
    9.3324     30.84     29.73    -19.66     24.00
    9.3425     30.04     29.76    -20.49     24.00
    9.3527     30.51     29.78    -20.04     24.00
    9.3629     31.54     29.81    -19.04     24.00
    9.3730     29.74     29.83    -20.86     24.00
    9.3832     31.48     29.86    -19.15     24.00
    9.3934     31.30     29.88    -19.35     24.00
    9.4035     30.55     29.90    -20.12     24.00
    9.4137     31.26     29.93    -19.44     24.00
    9.4239     29.87     29.95    -20.85     24.00
    9.4340     30.59     29.98    -20.16     24.00
    9.4442     31.30     30.00    -19.47     24.00
    9.4544     30.24     30.03    -20.56     24.00
    9.4645     30.60     30.05    -20.22     24.00
    9.4747     32.04     30.08    -18.81     24.00
    9.4848     31.76     30.10    -19.11     24.00
    9.4950     30.43     30.13    -20.47     24.00
    9.5052     30.85     30.16    -20.08     24.00
    9.5153     31.55     30.18    -19.40     24.00
    9.5255     30.09     30.21    -20.89     24.00
    9.5357     30.71     30.23    -20.29     24.00
    9.5458     31.76     30.26    -19.27     24.00
    9.5560     30.71     30.29    -20.35     24.00
    9.5662     31.11     30.31    -19.97     24.00
    9.5763     31.43     30.34    -19.68     24.00
    9.5865     31.01     30.36    -20.12     24.00
    9.5967     30.95     30.39    -20.21     24.00
    9.6068     30.74     30.42    -20.45     24.00
    9.6170     31.88     30.44    -19.33     24.00
    9.6271     30.52     30.47    -20.72     24.00
    9.6373     31.30     30.50    -19.97     24.00
    9.6475     31.13     30.53    -20.17     24.00
    9.6576     31.36     30.55    -19.96     24.00
    9.6678     32.20     30.58    -19.15     24.00
    9.6780     30.99     30.61    -20.39     24.00
    9.6881     31.46     30.64    -19.95     24.00
    9.6983     32.00     30.66    -19.43     24.00
    9.7085     30.95     30.69    -20.51     24.00
    9.7186     31.73     30.72    -19.76     24.00
    9.7288     31.43     30.75    -20.09     24.00
    9.7390     31.76     30.78    -19.79     24.00
    9.7491     31.65     30.80    -19.92     24.00
    9.7593     31.54     30.83    -20.06     24.00
    9.7694     31.10     30.86    -20.53     24.00
    9.7796     31.53     30.89    -20.13     24.00
    9.7898     31.62     30.92    -20.07     24.00
    9.7999     30.55     30.95    -21.17     24.00
    9.8101     31.73     30.98    -20.02     24.00
    9.8203     32.07     31.01    -19.71     24.00
    9.8304     31.15     31.03    -20.65     24.00
    9.8406     32.41     31.06    -19.42     24.00
    9.8508     31.89     31.09    -19.97     24.00
    9.8609     31.76     31.12    -20.13     24.00
    9.8711     31.61     31.15    -20.31     24.00
    9.8813     32.06     31.18    -19.89     24.00
    9.8914     32.20     31.21    -19.78     24.00
    9.9016     32.45     31.24    -19.56     24.00
    9.9118     31.68     31.27    -20.36     24.00
    9.9219     31.96     31.30    -20.11     24.00
    9.9321     30.96     31.33    -21.14     24.00
    9.9422     31.34     31.36    -20.79     24.00
    9.9524     32.23     31.39    -19.93     24.00
    9.9626     31.90     31.43    -20.30     24.00
    9.9727     31.88     31.46    -20.35     24.00
    9.9829     32.18     31.49    -20.08     24.00
    9.9931     32.61     31.52    -19.68     24.00
   10.0032     31.91     31.55    -20.41     24.00
   10.0134     31.69     31.58    -20.66     24.00
   10.0236     32.59     31.61    -19.79     24.00
   10.0337     32.97     31.65    -19.45     24.00
   10.0439     32.52     31.68    -19.93     24.00
   10.0541     32.76     31.71    -19.72     24.00
   10.0642     31.89     31.74    -20.62     24.00
   10.0744     31.88     31.77    -20.66     24.00
   10.0845     32.81     31.81    -19.77     24.00
   10.0947     32.09     31.84    -20.52     24.00
   10.1049     32.95     31.87    -19.69     24.00
   10.1150     32.72     31.90    -19.95     24.00
   10.1252     32.71     31.94    -20.00     24.00
   10.1354     32.96     31.97    -19.78     24.00
   10.1455     32.91     32.00    -19.86     24.00
   10.1557     32.33     32.04    -20.48     24.00
   10.1659     32.89     32.07    -19.95     24.00
   10.1760     32.77     32.10    -20.10     24.00
   10.1862     32.65     32.14    -20.26     24.00
   10.1964     31.88     32.17    -21.06     24.00
   10.2065     32.67     32.20    -20.30     24.00
   10.2167     32.20     32.24    -20.81     24.00
   10.2269     33.11     32.27    -19.93     24.00
   10.2370     33.74     32.31    -19.34     24.00
   10.2472     32.35     32.34    -20.76     24.00
   10.2573     32.91     32.38    -20.24     24.00
   10.2675     32.95     32.41    -20.23     24.00
   10.2777     32.51     32.45    -20.71     24.00
   10.2878     33.38     32.48    -19.87     24.00
   10.2980     33.37     32.52    -19.92     24.00
   10.3082     33.53     32.55    -19.79     24.00
   10.3183     33.20     32.59    -20.16     24.00
   10.3285     33.59     32.62    -19.80     24.00
   10.3387     33.73     32.66    -19.70     24.00
   10.3488     32.97     32.69    -20.49     24.00
   10.3590     33.31     32.73    -20.19     24.00
   10.3692     33.02     32.77    -20.52     24.00
   10.3793     33.40     32.80    -20.17     24.00
   10.3895     34.11     32.84    -19.50     24.00
   10.3996     33.10     32.87    -20.54     24.00
   10.4098     32.91     32.91    -20.77     24.00
   10.4200     33.65     32.95    -20.07     24.00
   10.4301     33.51     32.98    -20.24     24.00
   10.4403     32.46     33.02    -21.33     24.00
   10.4505     34.76     33.06    -19.07     24.00
   10.4606     33.94     33.10    -19.93     24.00
   10.4708     32.49     33.13    -21.41     24.00
   10.4810     33.68     33.17    -20.26     24.00
   10.4911     34.73     33.21    -19.25     24.00
   10.5013     33.08     33.25    -20.94     24.00
   10.5115     33.50     33.28    -20.55     24.00
   10.5216     33.55     33.32    -20.54     24.00
   10.5318     34.04     33.36    -20.09     24.00
   10.5420     33.76     33.40    -20.41     24.00
   10.5521     33.55     33.44    -20.66     24.00
   10.5623     34.30     33.48    -19.95     24.00
   10.5724     33.35     33.52    -20.94     24.00
   10.5826     34.27     33.55    -20.05     24.00
   10.5928     34.06     33.59    -20.30     24.00
   10.6029     33.86     33.63    -20.54     24.00
   10.6131     34.05     33.67    -20.39     24.00
   10.6233     32.95     33.71    -21.53     24.00
   10.6334     34.35     33.75    -20.17     24.00
   10.6436     34.22     33.79    -20.34     24.00
   10.6538     34.43     33.83    -20.17     24.00
   10.6639     34.23     33.87    -20.41     24.00
   10.6741     33.60     33.91    -21.08     24.00
   10.6843     34.53     33.95    -20.19     24.00
   10.6944     34.29     33.99    -20.47     24.00
   10.7046     34.45     34.03    -20.35     24.00
   10.7147     35.38     34.08    -19.47     24.00
   10.7249     34.51     34.12    -20.38     24.00
   10.7351     34.04     34.16    -20.89     24.00
   10.7452     34.08     34.20    -20.89     24.00
   10.7554     34.82     34.24    -20.19     24.00
   10.7656     34.48     34.28    -20.57     24.00
   10.7757     34.15     34.32    -20.94     24.00
   10.7859     35.45     34.37    -19.69     24.00
   10.7961     35.17     34.41    -20.01     24.00
   10.8062     34.96     34.45    -20.26     24.00
   10.8164     34.64     34.49    -20.62     24.00
   10.8266     34.88     34.54    -20.43     24.00
   10.8367     34.87     34.58    -20.48     24.00
   10.8469     35.12     34.62    -20.27     24.00
   10.8571     35.49     34.66    -19.94     24.00
   10.8672     34.97     34.71    -20.51     24.00
   10.8774     34.51     34.75    -21.01     24.00
   10.8875     34.27     34.79    -21.29     24.00
   10.8977     35.23     34.84    -20.38     24.00
   10.9079     36.39     34.88    -19.26     24.00
   10.9180     35.51     34.93    -20.19     24.00
   10.9282     35.13     34.97    -20.61     24.00
   10.9384     35.33     35.01    -20.45     24.00
   10.9485     35.85     35.06    -19.98     24.00
   10.9587     35.07     35.10    -20.80     24.00
   10.9689     35.15     35.15    -20.77     24.00
   10.9790     34.70     35.19    -21.26     24.00
   10.9892     34.91     35.24    -21.10     24.00
   10.9994     35.14     35.28    -20.91     24.00
   11.0095     35.49     35.33    -20.61     24.00
   11.0197     35.49     35.37    -20.65     24.00
   11.0298     35.79     35.42    -20.40     24.00
   11.0400     35.39     35.47    -20.85     24.00
   11.0502     35.49     35.51    -20.79     24.00
   11.0603     35.14     35.56    -21.19     24.00
   11.0705     35.82     35.60    -20.55     24.00
   11.0807     36.02     35.65    -20.40     24.00
   11.0908     35.47     35.70    -21.00     24.00
   11.1010     36.87     35.74    -19.64     24.00
   11.1112     36.27     35.79    -20.29     24.00
   11.1213     35.91     35.84    -20.70     24.00
   11.1315     35.91     35.89    -20.75     24.00
   11.1417     35.41     35.93    -21.29     24.00
   11.1518     36.87     35.98    -19.88     24.00
   11.1620     35.80     36.03    -21.00     24.00
   11.1722     36.09     36.08    -20.76     24.00
   11.1823     35.41     36.12    -21.48     24.00
   11.1925     35.91     36.17    -21.03     24.00
   11.2026     36.23     36.22    -20.76     24.00
   11.2128     36.45     36.27    -20.59     24.00
   11.2230     37.41     36.32    -19.68     24.00
   11.2331     36.34     36.37    -20.80     24.00
   11.2433     36.52     36.42    -20.67     24.00
   11.2535     36.46     36.47    -20.78     24.00
   11.2636     36.14     36.51    -21.14     24.00
   11.2738     36.45     36.56    -20.88     24.00
   11.2840     37.48     36.61    -19.90     24.00
   11.2941     36.96     36.66    -20.47     24.00
   11.3043     36.79     36.71    -20.69     24.00
   11.3145     36.15     36.76    -21.38     24.00
   11.3246     36.76     36.81    -20.82     24.00
   11.3348     37.55     36.86    -20.08     24.00
   11.3449     37.10     36.92    -20.59     24.00
   11.3551     36.84     36.97    -20.90     24.00
   11.3653     37.20     37.02    -20.59     24.00
   11.3754     36.23     37.07    -21.61     24.00
   11.3856     36.22     37.12    -21.67     24.00
   11.3958     37.18     37.17    -20.76     24.00
   11.4059     36.35     37.22    -21.64     24.00
   11.4161     36.77     37.27    -21.27     24.00
   11.4263     36.88     37.33    -21.22     24.00
   11.4364     36.55     37.38    -21.60     24.00
   11.4466     36.06     37.43    -22.14     24.00
   11.4568     36.83     37.48    -21.42     24.00
   11.4669     36.79     37.54    -21.52     24.00
   11.4771     37.18     37.59    -21.18     24.00
   11.4873     37.57     37.64    -20.84     24.00
   11.4974     37.40     37.70    -21.07     24.00
   11.5076     37.95     37.75    -20.57     24.00
   11.5177     37.13     37.80    -21.44     24.00
   11.5279     38.10     37.86    -20.53     24.00
   11.5381     38.22     37.91    -20.46     24.00
   11.5482     37.39     37.96    -21.34     24.00
   11.5584     37.54     38.02    -21.25     24.00
   11.5686     37.23     38.07    -21.61     24.00
   11.5787     37.11     38.13    -21.79     24.00
   11.5889     37.93     38.18    -21.02     24.00
   11.5991     37.79     38.24    -21.22     24.00
   11.6092     37.06     38.29    -22.00     24.00
   11.6194     38.33     38.35    -20.79     24.00
   11.6296     38.07     38.40    -21.10     24.00
   11.6397     37.02     38.46    -22.21     24.00
   11.6499     37.96     38.51    -21.32     24.00
   11.6600     37.89     38.57    -21.45     24.00
   11.6702     38.69     38.63    -20.71     24.00
   11.6804     37.81     38.68    -21.64     24.00
   11.6905     38.60     38.74    -20.91     24.00
   11.7007     37.82     38.80    -21.75     24.00
   11.7109     38.24     38.85    -21.38     24.00
   11.7210     39.27     38.91    -20.41     24.00
   11.7312     38.14     38.97    -21.60     24.00
   11.7414     38.07     39.02    -21.72     24.00
   11.7515     38.38     39.08    -21.47     24.00
   11.7617     39.23     39.14    -20.68     24.00
   11.7719     37.57     39.20    -22.40     24.00
   11.7820     39.55     39.25    -20.47     24.00
   11.7922     39.37     39.31    -20.71     24.00
   11.8023     38.73     39.37    -21.41     24.00
   11.8125     38.88     39.43    -21.32     24.00
   11.8227     37.98     39.49    -22.28     24.00
   11.8328     39.06     39.55    -21.26     24.00
   11.8430     39.59     39.61    -20.79     24.00
   11.8532     39.04     39.67    -21.40     24.00
   11.8633     39.46     39.72    -21.03     24.00
   11.8735     39.13     39.78    -21.42     24.00
   11.8837     38.73     39.84    -21.88     24.00
   11.8938     39.14     39.90    -21.53     24.00
   11.9040     39.38     39.96    -21.35     24.00
   11.9142     39.90     40.02    -20.89     24.00
   11.9243     39.48     40.08    -21.37     24.00
   11.9345     38.76     40.15    -22.16     24.00
   11.9447     39.16     40.21    -21.82     24.00
   11.9548     40.40     40.27    -20.64     24.00
   11.9650     40.08     40.33    -21.02     24.00
   11.9751     40.02     40.39    -21.14     24.00
   11.9853     40.12     40.45    -21.10     24.00
   11.9955     39.66     40.51    -21.62     24.00
   12.0056     39.67     40.57    -21.67     24.00
   12.0158     38.66     40.64    -22.75     24.00
   12.0260     39.20     40.70    -22.27     24.00
   12.0361     40.04     40.76    -21.49     24.00
   12.0463     39.22     40.82    -22.37     24.00
   12.0565     39.54     40.89    -22.12     24.00
   12.0666     39.21     40.95    -22.51     24.00
   12.0768     40.12     41.01    -21.66     24.00
   12.0870     40.39     41.08    -21.46     24.00
   12.0971     40.22     41.14    -21.69     24.00
   12.1073     40.57     41.20    -21.40     24.00
   12.1174     41.21     41.27    -20.83     24.00
   12.1276     40.68     41.33    -21.42     24.00
   12.1378     40.97     41.40    -21.20     24.00
   12.1479     40.01     41.46    -22.22     24.00
   12.1581     40.10     41.52    -22.19     24.00
   12.1683     40.99     41.59    -21.37     24.00
   12.1784     41.10     41.65    -21.32     24.00
   12.1886     40.92     41.72    -21.57     24.00
   12.1988     41.27     41.78    -21.28     24.00
   12.2089     41.36     41.85    -21.26     24.00
   12.2191     40.29     41.92    -22.40     24.00
   12.2293     42.07     41.98    -20.68     24.00
   12.2394     41.22     42.05    -21.60     24.00
   12.2496     42.28     42.11    -20.60     24.00
   12.2598     41.86     42.18    -21.09     24.00
   12.2699     41.28     42.25    -21.74     24.00
   12.2801     40.49     42.31    -22.59     24.00
   12.2902     41.73     42.38    -21.42     24.00
   12.3004     41.10     42.45    -22.12     24.00
   12.3106     41.43     42.51    -21.85     24.00
   12.3207     41.62     42.58    -21.73     24.00
   12.3309     41.82     42.65    -21.60     24.00
   12.3411     42.02     42.72    -21.47     24.00
   12.3512     42.85     42.78    -20.70     24.00
   12.3614     42.15     42.85    -21.47     24.00
   12.3716     41.89     42.92    -21.80     24.00
   12.3817     42.54     42.99    -21.22     24.00
   12.3919     42.93     43.06    -20.90     24.00
   12.4021     42.46     43.13    -21.44     24.00
   12.4122     41.62     43.20    -22.35     24.00
   12.4224     42.61     43.27    -21.43     24.00
   12.4325     42.45     43.33    -21.65     24.00
   12.4427     42.98     43.40    -21.19     24.00
   12.4529     42.68     43.47    -21.56     24.00
   12.4630     42.87     43.54    -21.44     24.00
   12.4732     41.72     43.61    -22.66     24.00
   12.4834     41.79     43.68    -22.66     24.00
   12.4935     42.16     43.75    -22.36     24.00
   12.5037     42.95     43.83    -21.65     24.00
   12.5139     44.56     43.90    -20.11     24.00
   12.5240     42.88     43.97    -21.86     24.00
   12.5342     42.87     44.04    -21.94     24.00
   12.5444     42.61     44.11    -22.27     24.00
   12.5545     42.79     44.18    -22.16     24.00
   12.5647     42.90     44.25    -22.12     24.00
   12.5749     42.90     44.33    -22.20     24.00
   12.5850     44.15     44.40    -21.02     24.00
   12.5952     44.26     44.47    -20.98     24.00
   12.6053     44.04     44.54    -21.27     24.00
   12.6155     43.68     44.62    -21.71     24.00
   12.6257     43.62     44.69    -21.84     24.00
   12.6358     43.48     44.76    -22.05     24.00
   12.6460     42.03     44.83    -23.57     24.00
   12.6562     44.15     44.91    -21.53     24.00
   12.6663     43.99     44.98    -21.76     24.00
   12.6765     43.01     45.06    -22.82     24.00
   12.6867     43.35     45.13    -22.55     24.00
   12.6968     43.84     45.20    -22.13     24.00
   12.7070     43.48     45.28    -22.57     24.00
   12.7172     44.06     45.35    -22.06     24.00
   12.7273     43.48     45.43    -22.72     24.00
   12.7375     43.85     45.50    -22.42     24.00
   12.7476     43.64     45.58    -22.71     24.00
   12.7578     44.54     45.65    -21.88     24.00
   12.7680     44.80     45.73    -21.70     24.00
   12.7781     44.70     45.80    -21.87     24.00
   12.7883     44.60     45.88    -22.05     24.00
   12.7985     44.49     45.95    -22.23     24.00
   12.8086     45.35     46.03    -21.45     24.00
   12.8188     45.27     46.11    -21.61     24.00
   12.8290     44.82     46.18    -22.13     24.00
   12.8391     44.99     46.26    -22.04     24.00
   12.8493     45.68     46.34    -21.43     24.00
   12.8595     45.50     46.41    -21.68     24.00
   12.8696     44.86     46.49    -22.40     24.00
   12.8798     45.68     46.57    -21.66     24.00
   12.8900     45.35     46.65    -22.07     24.00
   12.9001     45.98     46.72    -21.51     24.00
   12.9103     45.49     46.80    -22.08     24.00
   12.9204     45.81     46.88    -21.84     24.00
   12.9306     45.01     46.96    -22.72     24.00
   12.9408     45.45     47.04    -22.36     24.00
   12.9509     46.01     47.11    -21.87     24.00
   12.9611     46.71     47.19    -21.25     24.00
   12.9713     46.35     47.27    -21.69     24.00
   12.9814     46.55     47.35    -21.57     24.00
   12.9916     47.05     47.43    -21.15     24.00
   13.0018     46.79     47.51    -21.49     24.00
   13.0119     46.93     47.59    -21.43     24.00
   13.0221     46.95     47.67    -21.49     24.00
   13.0323     46.80     47.75    -21.72     24.00
   13.0424     47.51     47.83    -21.09     24.00
   13.0526     46.37     47.91    -22.31     24.00
   13.0627     47.43     47.99    -21.33     24.00
   13.0729     46.26     48.07    -22.58     24.00
   13.0831     47.50     48.15    -21.42     24.00
   13.0932     46.93     48.23    -22.07     24.00
   13.1034     47.48     48.32    -21.61     24.00
   13.1136     48.48     48.40    -20.69     24.00
   13.1237     46.96     48.48    -22.29     24.00
   13.1339     47.36     48.56    -21.97     24.00
   13.1441     47.69     48.64    -21.72     24.00
   13.1542     46.47     48.72    -23.02     24.00
   13.1644     46.80     48.81    -22.78     24.00
   13.1746     46.71     48.89    -22.95     24.00
   13.1847     48.69     48.97    -21.05     24.00
   13.1949     48.58     49.06    -21.25     24.00
   13.2051     49.39     49.14    -20.52     24.00
   13.2152     47.62     49.22    -22.37     24.00
   13.2254     48.07     49.30    -22.00     24.00
   13.2355     49.32     49.39    -20.84     24.00
   13.2457     48.37     49.47    -21.87     24.00
   13.2559     48.96     49.56    -21.37     24.00
   13.2660     48.39     49.64    -22.02     24.00
   13.2762     48.45     49.72    -22.04     24.00
   13.2864     48.03     49.81    -22.55     24.00
   13.2965     49.54     49.89    -21.12     24.00
   13.3067     49.29     49.98    -21.46     24.00
   13.3169     48.61     50.06    -22.22     24.00
   13.3270     48.96     50.15    -21.96     24.00
   13.3372     49.35     50.23    -21.65     24.00
   13.3474     48.88     50.32    -22.21     24.00
   13.3575     49.74     50.40    -21.43     24.00
   13.3677     49.35     50.49    -21.91     24.00
   13.3778     49.15     50.58    -22.20     24.00
   13.3880     49.95     50.66    -21.48     24.00
   13.3982     50.12     50.75    -21.40     24.00
   13.4083     49.18     50.84    -22.43     24.00
   13.4185     49.35     50.92    -22.34     24.00
   13.4287     51.28     51.01    -20.50     24.00
   13.4388     50.10     51.10    -21.77     24.00
   13.4490     50.68     51.18    -21.27     24.00
   13.4592     49.88     51.27    -22.16     24.00
   13.4693     49.67     51.36    -22.46     24.00
   13.4795     50.86     51.45    -21.36     24.00
   13.4897     50.95     51.54    -21.36     24.00
   13.4998     51.25     51.62    -21.14     24.00
   13.5100     49.87     51.71    -22.61     24.00
   13.5201     51.18     51.80    -21.39     24.00
   13.5303     50.74     51.89    -21.92     24.00
   13.5405     50.08     51.98    -22.67     24.00
   13.5506     50.79     52.07    -22.05     24.00
   13.5608     52.12     52.16    -20.81     24.00
   13.5710     50.93     52.25    -22.09     24.00
   13.5811     51.04     52.33    -22.06     24.00
   13.5913     51.13     52.42    -22.06     24.00
   13.6015     50.08     52.51    -23.20     24.00
   13.6116     51.37     52.60    -22.00     24.00
   13.6218     52.96     52.69    -20.50     24.00
   13.6320     52.01     52.79    -21.55     24.00
   13.6421     52.35     52.88    -21.30     24.00
   13.6523     51.57     52.97    -22.17     24.00
   13.6625     52.35     53.06    -21.48     24.00
   13.6726     53.45     53.15    -20.47     24.00
   13.6828     52.34     53.24    -21.67     24.00
   13.6929     51.82     53.33    -22.28     24.00
   13.7031     52.76     53.42    -21.43     24.00
   13.7133     52.86     53.51    -21.42     24.00
   13.7234     53.36     53.61    -21.02     24.00
   13.7336     53.47     53.70    -21.00     24.00
   13.7438     52.51     53.79    -22.05     24.00
   13.7539     54.04     53.88    -20.61     24.00
   13.7641     55.01     53.98    -19.74     24.00
   13.7743     52.81     54.07    -22.03     24.00
   13.7844     52.91     54.16    -22.02     24.00
   13.7946     53.91     54.25    -21.11     24.00
   13.8048     52.82     54.35    -22.30     24.00
   13.8149     53.37     54.44    -21.84     24.00
   13.8251     55.60     54.54    -19.71     24.00
   13.8352     54.43     54.63    -20.97     24.00
   13.8454     54.11     54.72    -21.38     24.00
   13.8556     54.15     54.82    -21.44     24.00
   13.8657     54.56     54.91    -21.12     24.00
   13.8759     54.96     55.01    -20.82     24.00
   13.8861     55.30     55.10    -20.57     24.00
   13.8962     54.35     55.20    -21.62     24.00
   13.9064     54.42     55.29    -21.64     24.00
   13.9166     54.88     55.39    -21.28     24.00
   13.9267     54.55     55.48    -21.70     24.00
   13.9369     55.68     55.58    -20.67     24.00
   13.9471     54.99     55.67    -21.45     24.00
   13.9572     55.30     55.77    -21.24     24.00
   13.9674     55.76     55.87    -20.88     24.00
   13.9776     55.16     55.96    -21.57     24.00
   13.9877     55.89     56.06    -20.94     24.00
   13.9979     54.79     56.15    -22.13     24.00
   14.0080     56.56     56.25    -20.46     24.00
   14.0182     55.21     56.35    -21.91     24.00
   14.0284     55.30     56.45    -21.92     24.00
   14.0385     55.77     56.54    -21.54     24.00
   14.0487     56.87     56.64    -20.54     24.00
   14.0589     55.54     56.74    -21.97     24.00
   14.0690     57.27     56.84    -20.34     24.00
   14.0792     56.93     56.94    -20.78     24.00
   14.0894     56.48     57.03    -21.32     24.00
   14.0995     56.89     57.13    -21.01     24.00
   14.1097     57.61     57.23    -20.39     24.00
   14.1199     55.80     57.33    -22.30     24.00
   14.1300     57.39     57.43    -20.81     24.00
   14.1402     57.79     57.53    -20.51     24.00
   14.1503     57.81     57.63    -20.59     24.00
   14.1605     58.53     57.73    -19.97     24.00
   14.1707     57.84     57.83    -20.76     24.00
   14.1808     57.48     57.93    -21.22     24.00
   14.1910     57.51     58.03    -21.29     24.00
   14.2012     58.20     58.13    -20.70     24.00
   14.2113     57.05     58.23    -21.95     24.00
   14.2215     58.52     58.33    -20.58     24.00
   14.2317     57.93     58.43    -21.27     24.00
   14.2418     59.40     58.53    -19.90     24.00
   14.2520     58.21     58.64    -21.20     24.00
   14.2622     60.29     58.74    -19.22     24.00
   14.2723     58.88     58.84    -20.73     24.00
   14.2825     58.42     58.94    -21.29     24.00
   14.2927     58.00     59.05    -21.82     24.00
   14.3028     59.86     59.15    -20.06     24.00
   14.3130     59.66     59.25    -20.36     24.00
   14.3231     60.27     59.35    -19.85     24.00
   14.3333     59.57     59.46    -20.66     24.00
   14.3435     60.87     59.56    -19.46     24.00
   14.3536     59.90     59.66    -20.53     24.00
   14.3638     59.89     59.77    -20.65     24.00
   14.3740     60.57     59.87    -20.07     24.00
   14.3841     61.12     59.98    -19.63     24.00
   14.3943     60.74     60.08    -20.11     24.00
   14.4045     61.35     60.19    -19.61     24.00
   14.4146     60.13     60.29    -20.93     24.00
   14.4248     61.54     60.40    -19.63     24.00
   14.4350     61.37     60.51    -19.91     24.00
   14.4451     61.70     60.61    -19.68     24.00
   14.4553     61.55     60.72    -19.94     24.00
   14.4654     62.91     60.83    -18.69     24.00
   14.4756     60.56     60.93    -21.14     24.00
   14.4858     60.40     61.04    -21.41     24.00
   14.4959     61.83     61.15    -20.09     24.00
   14.5061     62.15     61.26    -19.88     24.00
   14.5163     61.39     61.37    -20.75     24.00
   14.5264     62.81     61.47    -19.43     24.00
   14.5366     61.97     61.58    -20.38     24.00
   14.5468     62.40     61.69    -20.06     24.00
   14.5569     62.29     61.80    -20.28     24.00
   14.5671     63.19     61.91    -19.49     24.00
   14.5773     62.74     62.02    -20.05     24.00
   14.5874     63.30     62.13    -19.60     24.00
   14.5976     63.09     62.24    -19.92     24.00
   14.6078     63.30     62.36    -19.83     24.00
   14.6179     64.65     62.47    -18.59     24.00
   14.6281     64.29     62.58    -19.06     24.00
   14.6382     63.91     62.69    -19.55     24.00
   14.6484     63.98     62.80    -19.59     24.00
   14.6586     64.52     62.92    -19.17     24.00
   14.6687     63.96     63.03    -19.84     24.00
   14.6789     64.59     63.15    -19.33     24.00
   14.6891     64.16     63.26    -19.87     24.00
   14.6992     64.24     63.37    -19.90     24.00
   14.7094     64.46     63.49    -19.80     24.00
   14.7196     64.41     63.61    -19.97     24.00
   14.7297     64.71     63.72    -19.78     24.00
   14.7399     67.00     63.84    -17.61     24.00
   14.7501     64.90     63.96    -19.83     24.00
   14.7602     65.27     64.07    -19.57     24.00
   14.7704     65.37     64.19    -19.59     24.00
   14.7805     65.75     64.31    -19.33     24.00
   14.7907     66.17     64.43    -19.03     24.00
   14.8009     66.87     64.55    -18.45     24.00
   14.8110     65.87     64.67    -19.57     24.00
   14.8212     66.18     64.79    -19.38     24.00
   14.8314     67.84     64.91    -17.84     24.00
   14.8415     66.95     65.03    -18.85     24.00
   14.8517     67.52     65.15    -18.40     24.00
   14.8619     66.67     65.28    -19.38     24.00
   14.8720     67.65     65.40    -18.52     24.00
   14.8822     66.99     65.52    -19.30     24.00
   14.8924     67.59     65.65    -18.83     24.00
   14.9025     66.76     65.77    -19.78     24.00
   14.9127     66.50     65.90    -20.17     24.00
   14.9229     68.29     66.02    -18.50     24.00
   14.9330     67.97     66.15    -18.95     24.00
   14.9432     68.01     66.28    -19.04     24.00
   14.9533     67.99     66.40    -19.18     24.00
   14.9635     67.60     66.53    -19.70     24.00
   14.9737     69.51     66.66    -17.92     24.00
   14.9838     69.52     66.79    -18.04     24.00
   14.9940     67.96     66.92    -19.73     24.00
   15.0042     68.70     67.05    -19.12     24.00
   15.0143     68.37     67.18    -19.58     24.00
   15.0245     69.52     67.32    -18.57     24.00
   15.0347     69.51     67.45    -18.71     24.00
   15.0448     70.21     67.59    -18.15     24.00
   15.0550     69.10     67.72    -19.39     24.00
   15.0652     70.46     67.86    -18.17     24.00
   15.0753     71.51     67.99    -17.25     24.00
   15.0855     70.64     68.13    -18.26     24.00
   15.0956     71.26     68.27    -17.78     24.00
   15.1058     70.21     68.41    -18.97     24.00
   15.1160     69.77     68.55    -19.55     24.00
   15.1261     70.57     68.69    -18.89     24.00
   15.1363     71.40     68.83    -18.20     24.00
   15.1465     71.58     68.97    -18.16     24.00
   15.1566     70.93     69.11    -18.95     24.00
   15.1668     71.88     69.26    -18.15     24.00
   15.1770     71.98     69.40    -18.19     24.00
   15.1871     71.51     69.55    -18.81     24.00
   15.1973     71.96     69.70    -18.51     24.00
   15.2075     71.23     69.85    -19.39     24.00
   15.2176     71.91     69.99    -18.85     24.00
   15.2278     72.22     70.14    -18.69     24.00
   15.2380     72.18     70.30    -18.89     24.00
   15.2481     72.73     70.45    -18.49     24.00
   15.2583     73.59     70.60    -17.78     24.00
   15.2684     72.97     70.75    -18.55     24.00
   15.2786     73.13     70.91    -18.55     24.00
   15.2888     73.66     71.06    -18.17     24.00
   15.2989     73.41     71.22    -18.58     24.00
   15.3091     74.17     71.38    -17.98     24.00
   15.3193     74.01     71.54    -18.30     24.00
   15.3294     73.88     71.70    -18.59     24.00
   15.3396     74.55     71.86    -18.08     24.00
   15.3498     73.74     72.02    -19.05     24.00
   15.3599     73.82     72.19    -19.14     24.00
   15.3701     76.40     72.35    -16.72     24.00
   15.3803     75.07     72.52    -18.22     24.00
   15.3904     77.15     72.69    -16.31     24.00
   15.4006     76.26     72.86    -17.37     24.00
   15.4107     75.71     73.02    -18.08     24.00
   15.4209     75.57     73.20    -18.40     24.00
   15.4311     76.93     73.37    -17.21     24.00
   15.4412     77.00     73.54    -17.31     24.00
   15.4514     76.81     73.72    -17.68     24.00
   15.4616     75.91     73.90    -18.76     24.00
   15.4717     77.32     74.07    -17.52     24.00
   15.4819     77.25     74.25    -17.77     24.00
   15.4921     77.02     74.43    -18.18     24.00
   15.5022     76.02     74.61    -19.36     24.00
   15.5124     77.62     74.80    -17.95     24.00
   15.5226     77.86     74.98    -17.89     24.00
   15.5327     77.96     75.17    -17.98     24.00
   15.5429     79.26     75.35    -16.86     24.00
   15.5530     77.28     75.54    -19.03     24.00
   15.5632     78.88     75.73    -17.62     24.00
   15.5734     78.37     75.92    -18.32     24.00
   15.5835     78.32     76.12    -18.57     24.00
   15.5937     80.46     76.31    -16.62     24.00
   15.6039     79.52     76.51    -17.76     24.00
   15.6140     79.02     76.70    -18.45     24.00
   15.6242     80.26     76.90    -17.41     24.00
   15.6344     78.65     77.10    -19.22     24.00
   15.6445     80.23     77.30    -17.84     24.00
   15.6547     81.08     77.51    -17.20     24.00
   15.6649     78.77     77.71    -19.71     24.00
   15.6750     79.57     77.92    -19.12     24.00
   15.6852     80.49     78.12    -18.40     24.00
   15.6954     80.16     78.33    -18.94     24.00
   15.7055     81.58     78.54    -17.73     24.00
   15.7157     81.68     78.76    -17.85     24.00
   15.7258     81.48     78.97    -18.26     24.00
   15.7360     80.27     79.18    -19.68     24.00
   15.7462     80.83     79.40    -19.34     24.00
   15.7563     82.18     79.62    -18.21     24.00
   15.7665     82.36     79.84    -18.25     24.00
   15.7767     84.26     80.06    -16.57     24.00
   15.7868     83.57     80.28    -17.48     24.00
   15.7970     82.66     80.51    -18.62     24.00
   15.8072     83.46     80.73    -18.04     24.00
   15.8173     84.29     80.96    -17.44     24.00
   15.8275     84.34     81.19    -17.62     24.00
   15.8377     82.63     81.42    -19.56     24.00
   15.8478     84.15     81.65    -18.27     24.00
   15.8580     83.32     81.88    -19.33     24.00
   15.8681     84.10     82.11    -18.78     24.00
   15.8783     82.68     82.35    -20.44     24.00
   15.8885     84.54     82.59    -18.82     24.00
   15.8986     84.35     82.83    -19.25     24.00
   15.9088     84.35     83.07    -19.49     24.00
   15.9190     84.86     83.31    -19.22     24.00
   15.9291     85.09     83.55    -19.23     24.00
   15.9393     86.60     83.80    -17.97     24.00
   15.9495     85.06     84.05    -19.76     24.00
   15.9596     85.79     84.29    -19.27     24.00
   15.9698     87.37     84.54    -17.94     24.00
   15.9800     86.10     84.79    -19.46     24.00
   15.9901     87.84     85.04    -17.97     24.00
   16.0003     86.07     85.30    -20.00     24.00
   16.0105     87.71     85.55    -18.61     24.00
   16.0206     87.73     85.81    -18.85     24.00
   16.0308     86.48     86.06    -20.35     24.00
   16.0409     87.71     86.32    -19.38     24.00
   16.0511     88.25     86.58    -19.10     24.00
   16.0613     88.05     86.84    -19.56     24.00
   16.0714     88.16     87.10    -19.71     24.00
   16.0816     87.49     87.37    -20.65     24.00
   16.0918     89.49     87.63    -18.91     24.00
   16.1019     89.26     87.89    -19.40     24.00
   16.1121     89.34     88.16    -19.59     24.00
   16.1223     90.05     88.43    -19.15     24.00
   16.1324     90.49     88.70    -18.98     24.00
   16.1426     88.70     88.97    -21.04     24.00
   16.1528     89.54     89.24    -20.47     24.00
   16.1629     88.07     89.51    -22.21     24.00
   16.1731     89.93     89.78    -20.62     24.00
   16.1832     89.39     90.06    -21.44     24.00
   16.1934     90.83     90.33    -20.27     24.00
   16.2036     91.33     90.61    -20.05     24.00
   16.2137     89.81     90.88    -21.84     24.00
   16.2239     90.30     91.16    -21.63     24.00
   16.2341     89.93     91.44    -22.28     24.00
   16.2442     92.16     91.71    -20.32     24.00
   16.2544     90.65     91.99    -22.11     24.00
   16.2646     92.59     92.27    -20.45     24.00
   16.2747     92.09     92.55    -21.23     24.00
   16.2849     92.32     92.84    -21.29     24.00
   16.2951     93.19     93.12    -20.70     24.00
   16.3052     92.92     93.40    -21.25     24.00
   16.3154     93.93     93.68    -20.52     24.00
   16.3256     93.96     93.96    -20.77     24.00
   16.3357     93.06     94.25    -21.96     24.00
   16.3459     93.85     94.53    -21.45     24.00
   16.3560     94.17     94.81    -21.41     24.00
   16.3662     95.43     95.10    -20.44     24.00
   16.3764     94.74     95.38    -21.41     24.00
   16.3865     96.12     95.66    -20.31     24.00
   16.3967     95.30     95.95    -21.42     24.00
   16.4069     94.63     96.23    -22.37     24.00
   16.4170     96.91     96.52    -20.38     24.00
   16.4272     95.71     96.80    -21.86     24.00
   16.4374     95.84     97.09    -22.02     24.00
   16.4475     97.39     97.37    -20.75     24.00
   16.4577     96.23     97.65    -22.19     24.00
   16.4679     97.62     97.94    -21.09     24.00
   16.4780     98.33     98.22    -20.66     24.00
   16.4882     97.62     98.50    -21.65     24.00
   16.4983     97.71     98.78    -21.84     24.00
   16.5085     97.71     99.06    -22.12     24.00
   16.5187     96.68     99.34    -23.43     24.00
   16.5288     98.42     99.62    -21.97     24.00
   16.5390     99.35     99.90    -21.32     24.00
   16.5492     98.66    100.18    -22.29     24.00
   16.5593     99.11    100.46    -22.12     24.00
   16.5695     98.83    100.74    -22.68     24.00
   16.5797    100.10    101.02    -21.69     24.00
   16.5898     99.45    101.29    -22.61     24.00
   16.6000     97.90    101.57    -24.44     24.00
   16.6102    101.09    101.84    -21.52     24.00
   16.6203    100.79    102.11    -22.09     24.00
   16.6305    100.95    102.38    -22.20     24.00
   16.6407     99.94    102.65    -23.48     24.00
   16.6508    102.16    102.92    -21.53     24.00
   16.6610    101.14    103.19    -22.82     24.00
   16.6711    101.60    103.45    -22.62     24.00
   16.6813    102.24    103.72    -22.25     24.00
   16.6915    103.01    103.98    -21.74     24.00
   16.7016    101.26    104.24    -23.75     24.00
   16.7118    102.13    104.50    -23.14     24.00
   16.7220    101.63    104.76    -23.90     24.00
   16.7321    102.47    105.01    -23.31     24.00
   16.7423    101.74    105.27    -24.30     24.00
   16.7525    104.76    105.52    -21.53     24.00
   16.7626    102.99    105.77    -23.55     24.00
   16.7728    103.52    106.02    -23.27     24.00
   16.7830    106.59    106.27    -20.45     24.00
   16.7931    104.13    106.51    -23.15     24.00
   16.8033    104.65    106.75    -22.87     24.00
   16.8134    105.50    106.99    -22.26     24.00
   16.8236    103.68    107.23    -24.32     24.00
   16.8338    104.98    107.47    -23.26     24.00
   16.8439    105.21    107.70    -23.26     24.00
   16.8541    106.12    107.93    -22.58     24.00
   16.8643    107.41    108.16    -21.52     24.00
   16.8744    104.07    108.38    -25.08     24.00
   16.8846    105.18    108.61    -24.20     24.00
   16.8948    106.09    108.83    -23.51     24.00
   16.9049    106.38    109.04    -23.43     24.00
   16.9151    108.39    109.26    -21.64     24.00
   16.9253    106.71    109.47    -23.53     24.00
   16.9354    108.53    109.68    -21.92     24.00
   16.9456    107.61    109.89    -23.05     24.00
   16.9558    108.39    110.09    -22.47     24.00
   16.9659    108.42    110.29    -22.64     24.00
   16.9761    108.06    110.49    -23.20     24.00
   16.9862    107.96    110.69    -23.50     24.00
   16.9964    108.07    110.88    -23.58     24.00
   17.0066    107.07    111.07    -24.77     24.00
   17.0167    110.42    111.26    -21.61     24.00
   17.0269    108.48    111.44    -23.73     24.00
   17.0371    109.98    111.62    -22.41     24.00
   17.0472    108.77    111.80    -23.80     24.00
   17.0574    110.60    111.98    -22.15     24.00
   17.0676    110.40    112.15    -22.52     24.00
   17.0777    108.73    112.32    -24.36     24.00
   17.0879    111.79    112.49    -21.47     24.00
   17.0981    109.79    112.65    -23.63     24.00
   17.1082    109.21    112.81    -24.37     24.00
   17.1184    112.09    112.97    -21.65     24.00
   17.1285    110.76    113.12    -23.13     24.00
   17.1387    109.61    113.28    -24.44     24.00
   17.1489    112.89    113.43    -21.31     24.00
   17.1590    111.17    113.58    -23.18     24.00
   17.1692    109.76    113.72    -24.73     24.00
   17.1794    113.66    113.87    -20.98     24.00
   17.1895    112.73    114.01    -22.05     24.00
   17.1997    112.59    114.15    -22.33     24.00
   17.2099    114.39    114.29    -20.67     24.00
   17.2200    112.84    114.42    -22.35     24.00
   17.2302    114.98    114.56    -20.35     24.00
   17.2404    114.79    114.69    -20.67     24.00
   17.2505    112.84    114.82    -22.75     24.00
   17.2607    114.29    114.95    -21.43     24.00
   17.2709    114.93    115.08    -20.92     24.00
   17.2810    114.30    115.21    -21.68     24.00
   17.2912    113.64    115.34    -22.47     24.00
   17.3013    114.09    115.46    -22.14     24.00
   17.3115    115.38    115.59    -20.98     24.00
   17.3217    115.96    115.72    -20.53     24.00
   17.3318    116.52    115.85    -20.10     24.00
   17.3420    115.76    115.97    -20.98     24.00
   17.3522    116.87    116.10    -20.00     24.00
   17.3623    117.27    116.24    -19.74     24.00
   17.3725    116.87    116.37    -20.27     24.00
   17.3827    117.44    116.50    -19.83     24.00
   17.3928    118.89    116.64    -18.52     24.00
   17.4030    117.58    116.78    -19.97     24.00
   17.4132    118.07    116.93    -19.63     24.00
   17.4233    118.48    117.07    -19.36     24.00
   17.4335    118.36    117.23    -19.64     24.00
   17.4436    119.66    117.38    -18.49     24.00
   17.4538    119.96    117.54    -18.35     24.00
   17.4640    120.33    117.71    -18.15     24.00
   17.4741    120.27    117.88    -18.38     24.00
   17.4843    119.82    118.06    -19.01     24.00
   17.4945    120.66    118.25    -18.36     24.00
   17.5046    120.80    118.44    -18.41     24.00
   17.5148    122.70    118.65    -16.72     24.00
   17.5250    120.97    118.86    -18.66     24.00
   17.5351    120.52    119.08    -19.33     24.00
   17.5453    121.78    119.32    -18.31     24.00
   17.5555    122.98    119.56    -17.35     24.00
   17.5656    120.41    119.82    -20.18     24.00
   17.5758    124.42    120.09    -16.44     24.00
   17.5859    123.12    120.36    -18.01     24.00
   17.5961    123.51    120.66    -17.92     24.00
   17.6063    126.12    120.97    -15.62     24.00
   17.6164    125.22    121.30    -16.85     24.00
   17.6266    124.48    121.64    -17.93     24.00
   17.6368    126.12    122.00    -16.65     24.00
   17.6469    126.25    122.37    -16.89     24.00
   17.6571    128.01    122.77    -15.53     24.00
   17.6673    127.30    123.19    -16.66     24.00
   17.6774    128.69    123.62    -15.70     24.00
   17.6876    128.41    124.08    -16.44     24.00
   17.6978    128.16    124.56    -17.17     24.00
   17.7079    131.66    125.05    -14.16     24.00
   17.7181    129.55    125.58    -16.80     24.00
   17.7283    132.35    126.13    -14.55     24.00
   17.7384    130.08    126.70    -17.39     24.00
   17.7486    132.08    127.31    -16.00     24.00
   17.7587    131.59    127.93    -17.11     24.00
   17.7689    132.66    128.59    -16.70     24.00
   17.7791    133.42    129.27    -16.62     24.00
   17.7892    133.71    129.98    -17.04     24.00
   17.7994    134.24    130.72    -17.25     24.00
   17.8096    135.97    131.50    -16.30     24.00
   17.8197    135.01    132.29    -18.05     24.00
   17.8299    134.12    133.13    -19.78     24.00
   17.8401    135.37    134.00    -19.40     24.00
   17.8502    138.94    134.89    -16.72     24.00
   17.8604    137.98    135.83    -18.62     24.00
   17.8706    141.71    136.80    -15.86     24.00
   17.8807    139.35    137.79    -19.21     24.00
   17.8909    140.85    138.83    -18.75     24.00
   17.9010    142.14    139.89    -18.52     24.00
   17.9112    143.76    141.00    -18.01     24.00
   17.9214    141.24    142.14    -21.67     24.00
   17.9315    144.12    143.31    -19.96     24.00
   17.9417    145.39    144.52    -19.90     24.00
   17.9519    144.82    145.77    -21.72     24.00
   17.9620    146.29    147.04    -21.52     24.00
   17.9722    148.13    148.35    -20.99     24.00
   17.9824    149.28    149.70    -21.19     24.00
   17.9925    150.52    151.07    -21.32     24.00
   18.0027    151.32    152.49    -21.94     24.00
   18.0129    151.39    153.94    -23.32     24.00
   18.0230    154.82    155.41    -21.36     24.00
   18.0332    156.57    156.92    -21.12     24.00
   18.0434    156.60    158.47    -22.64     24.00
   18.0535    155.24    160.02    -25.55     24.00
   18.0637    158.96    161.63    -23.44     24.00
   18.0738    160.79    163.24    -23.22     24.00
   18.0840    162.17    164.90    -23.50     24.00
   18.0942    163.66    166.58    -23.69     24.00
   18.1043    161.99    168.26    -27.04     24.00
   18.1145    165.79    169.99    -24.97     24.00
   18.1247    167.74    171.73    -24.76     24.00
   18.1348    169.21    173.48    -25.04     24.00
   18.1450    168.68    175.26    -27.35     24.00
   18.1552    173.01    177.05    -24.81     24.00
   18.1653    172.73    178.84    -26.88     24.00
   18.1755    174.10    180.66    -27.33     24.00
   18.1857    177.06    182.49    -26.20     24.00
   18.1958    178.95    184.30    -26.12     24.00
   18.2060    179.89    186.13    -27.01     24.00
   18.2161    182.59    187.95    -26.13     24.00
   18.2263    184.62    189.79    -25.94     24.00
   18.2365    183.35    191.62    -29.04     24.00
   18.2466    189.95    193.42    -24.24     24.00
   18.2568    189.70    195.24    -26.31     24.00
   18.2670    190.56    197.04    -27.25     24.00
   18.2771    195.98    198.81    -23.60     24.00
   18.2873    197.31    200.58    -24.04     24.00
   18.2975    196.99    202.32    -26.10     24.00
   18.3076    201.98    204.03    -22.82     24.00
   18.3178    202.66    205.72    -23.83     24.00
   18.3280    203.01    207.39    -25.15     24.00
   18.3381    206.82    209.01    -22.96     24.00
   18.3483    208.32    210.60    -23.05     24.00
   18.3585    210.56    212.16    -22.37     24.00
   18.3686    213.73    213.66    -20.70     24.00
   18.3788    216.02    215.12    -19.87     24.00
   18.3889    216.41    216.53    -20.89     24.00
   18.3991    219.04    217.89    -19.62     24.00
   18.4093    220.04    219.20    -19.93     24.00
   18.4194    223.05    220.45    -18.17     24.00
   18.4296    225.09    221.64    -17.32     24.00
   18.4398    227.63    222.77    -15.91     24.00
   18.4499    227.56    223.82    -17.03     24.00
   18.4601    230.95    224.82    -14.64     24.00
   18.4703    231.04    225.74    -15.47     24.00
   18.4804    232.00    226.58    -15.35     24.00
   18.4906    234.37    227.36    -13.76     24.00
   18.5008    233.00    228.05    -15.82     24.00
   18.5109    234.73    228.67    -14.71     24.00
   18.5211    235.08    229.20    -14.89     24.00
   18.5312    236.24    229.65    -14.18     24.00
   18.5414    237.71    230.02    -13.08     24.00
   18.5516    238.37    230.31    -12.71     24.00
   18.5617    239.27    230.51    -12.01     24.00
   18.5719    239.22    230.63    -12.18     24.00
   18.5821    238.76    230.66    -12.67     24.00
   18.5922    238.68    230.60    -12.69     24.00
   18.6024    235.35    230.46    -15.88     24.00
   18.6126    236.61    230.24    -14.40     24.00
   18.6227    236.60    229.93    -14.10     24.00
   18.6329    233.09    229.53    -17.21     24.00
   18.6431    236.21    229.06    -13.62     24.00
   18.6532    234.45    228.51    -14.83     24.00
   18.6634    232.23    227.87    -16.41     24.00
   18.6736    232.60    227.16    -15.33     24.00
   18.6837    230.92    226.38    -16.23     24.00
   18.6939    226.65    225.51    -19.63     24.00
   18.7040    227.91    224.59    -17.45     24.00
   18.7142    226.37    223.59    -17.99     24.00
   18.7244    225.95    222.52    -17.34     24.00
   18.7345    222.88    221.40    -19.29     24.00
   18.7447    219.88    220.21    -21.10     24.00
   18.7549    219.52    218.96    -20.21     24.00
   18.7650    221.01    217.67    -17.43     24.00
   18.7752    216.12    216.32    -20.97     24.00
   18.7854    213.52    214.92    -22.17     24.00
   18.7955    212.96    213.48    -21.29     24.00
   18.8057    209.66    211.99    -23.10     24.00
   18.8159    205.87    210.47    -25.37     24.00
   18.8260    204.58    208.92    -25.11     24.00
   18.8362    204.28    207.32    -23.81     24.00
   18.8463    200.95    205.71    -25.53     24.00
   18.8565    196.49    204.06    -28.34     24.00
   18.8667    197.70    202.38    -25.45     24.00
   18.8768    194.65    200.70    -26.82     24.00
   18.8870    191.78    198.99    -27.98     24.00
   18.8972    192.87    197.26    -25.16     24.00
   18.9073    189.98    195.54    -26.33     24.00
   18.9175    189.18    193.79    -25.38     24.00
   18.9277    186.26    192.04    -26.55     24.00
   18.9378    183.18    190.31    -27.90     24.00
   18.9480    183.73    188.55    -25.59     24.00
   18.9582    181.80    186.80    -25.77     24.00
   18.9683    177.02    185.07    -28.82     24.00
   18.9785    178.09    183.33    -26.01     24.00
   18.9887    176.33    181.60    -26.04     24.00
   18.9988    173.74    179.90    -26.93     24.00
   19.0090    174.96    178.20    -24.01     24.00
   19.0191    172.96    176.53    -24.34     24.00
   19.0293    169.90    174.86    -25.73     24.00
   19.0395    169.37    173.22    -24.62     24.00
   19.0496    169.54    171.61    -22.84     24.00
   19.0598    165.16    170.01    -25.62     24.00
   19.0700    166.50    168.43    -22.70     24.00
   19.0801    164.04    166.90    -23.63     24.00
   19.0903    161.07    165.38    -25.08     24.00
   19.1005    162.40    163.89    -22.26     24.00
   19.1106    159.57    162.44    -23.64     24.00
   19.1208    160.05    161.02    -21.74     24.00
   19.1310    158.20    159.62    -22.19     24.00
   19.1411    158.16    158.28    -20.89     24.00
   19.1513    156.44    156.95    -21.28     24.00
   19.1614    155.50    155.67    -20.94     24.00
   19.1716    155.23    154.42    -19.96     24.00
   19.1818    154.52    153.20    -19.45     24.00
   19.1919    153.42    152.03    -19.38     24.00
   19.2021    153.13    150.89    -18.53     24.00
   19.2123    149.96    149.78    -20.59     24.00
   19.2224    153.39    148.73    -16.11     24.00
   19.2326    151.04    147.70    -17.43     24.00
   19.2428    148.26    146.70    -19.21     24.00
   19.2529    146.99    145.76    -19.54     24.00
   19.2631    149.55    144.84    -16.06     24.00
   19.2733    147.79    143.97    -16.95     24.00
   19.2834    147.10    143.13    -16.80     24.00
   19.2936    144.98    142.33    -18.12     24.00
   19.3038    144.21    141.56    -18.12     24.00
   19.3139    143.12    140.84    -18.49     24.00
   19.3241    142.98    140.14    -17.93     24.00
   19.3342    143.37    139.49    -16.89     24.00
   19.3444    143.04    138.86    -16.59     24.00
   19.3546    142.41    138.27    -16.63     24.00
   19.3647    142.13    137.72    -16.36     24.00
   19.3749    142.03    137.20    -15.94     24.00
   19.3851    140.58    136.70    -16.89     24.00
   19.3952    140.33    136.25    -16.69     24.00
   19.4054    139.84    135.82    -16.75     24.00
   19.4156    141.06    135.41    -15.12     24.00
   19.4257    139.38    135.05    -16.44     24.00
   19.4359    139.60    134.70    -15.87     24.00
   19.4461    138.37    134.39    -16.79     24.00
   19.4562    136.99    134.10    -17.88     24.00
   19.4664    138.75    133.84    -15.86     24.00
   19.4765    138.13    133.60    -16.24     24.00
   19.4867    137.60    133.38    -16.55     24.00
   19.4969    136.43    133.19    -17.53     24.00
   19.5070    137.26    133.02    -16.53     24.00
   19.5172    136.08    132.87    -17.56     24.00
   19.5274    136.05    132.74    -17.46     24.00
   19.5375    136.09    132.64    -17.32     24.00
   19.5477    136.81    132.55    -16.51     24.00
   19.5579    136.70    132.48    -16.55     24.00
   19.5680    136.35    132.42    -16.84     24.00
   19.5782    135.81    132.38    -17.34     24.00
   19.5884    135.25    132.36    -17.88     24.00
   19.5985    132.68    132.35    -20.44     24.00
   19.6087    132.59    132.36    -20.54     24.00
   19.6188    132.24    132.38    -20.91     24.00
   19.6290    134.18    132.41    -19.00     24.00
   19.6392    132.68    132.45    -20.54     24.00
   19.6493    133.70    132.50    -19.57     24.00
   19.6595    133.46    132.57    -19.88     24.00
   19.6697    134.82    132.64    -18.59     24.00
   19.6798    133.64    132.72    -19.85     24.00
   19.6900    133.46    132.81    -20.12     24.00
   19.7002    132.22    132.91    -21.46     24.00
   19.7103    134.23    133.01    -19.55     24.00
   19.7205    132.03    133.12    -21.86     24.00
   19.7307    132.31    133.24    -21.70     24.00
   19.7408    133.05    133.36    -21.08     24.00
   19.7510    132.13    133.49    -22.13     24.00
   19.7612    133.33    133.62    -21.06     24.00
   19.7713    132.27    133.75    -22.25     24.00
   19.7815    133.93    133.89    -20.73     24.00
   19.7916    132.53    134.03    -22.27     24.00
   19.8018    132.53    134.17    -22.41     24.00
   19.8120    131.09    134.32    -24.00     24.00
   19.8221    132.05    134.46    -23.18     24.00
   19.8323    133.03    134.61    -22.35     24.00
   19.8425    132.37    134.76    -23.16     24.00
   19.8526    131.40    134.90    -24.27     24.00
   19.8628    133.21    135.05    -22.61     24.00
   19.8730    132.04    135.20    -23.93     24.00
   19.8831    130.86    135.34    -25.25     24.00
   19.8933    134.22    135.48    -22.03     24.00
   19.9035    134.35    135.63    -22.05     24.00
   19.9136    130.79    135.77    -25.75     24.00
   19.9238    134.07    135.90    -22.60     24.00
   19.9339    132.84    136.04    -23.97     24.00
   19.9441    132.43    136.17    -24.51     24.00
   19.9543    132.38    136.30    -24.69     24.00
   19.9644    132.79    136.43    -24.41     24.00
   19.9746    133.07    136.55    -24.25     24.00
   19.9848    131.57    136.67    -25.87     24.00
   19.9949    131.61    136.78    -25.94     24.00
   20.0051    131.98    136.89    -25.68     24.00
   20.0153    131.68    137.00    -26.09     24.00
   20.0254    131.88    137.10    -25.99     24.00
   20.0356    132.79    137.20    -25.18     24.00
   20.0458    133.32    137.29    -24.74     24.00
   20.0559    134.50    137.37    -23.64     24.00
   20.0661    132.98    137.46    -25.25     24.00
   20.0763    134.65    137.53    -23.65     24.00
   20.0864    134.38    137.60    -23.99     24.00
   20.0966    134.09    137.67    -24.35     24.00
   20.1067    134.79    137.72    -23.70     24.00
   20.1169    133.23    137.78    -25.32     24.00
   20.1271    134.48    137.82    -24.11     24.00
   20.1372    135.27    137.86    -23.36     24.00
   20.1474    135.05    137.90    -23.62     24.00
   20.1576    134.46    137.93    -24.24     24.00
   20.1677    136.43    137.95    -22.29     24.00
   20.1779    136.45    137.96    -22.28     24.00
   20.1881    134.22    137.97    -24.52     24.00
   20.1982    137.90    137.98    -20.85     24.00
   20.2084    135.73    137.97    -23.01     24.00
   20.2186    135.43    137.96    -23.30     24.00
   20.2287    136.54    137.94    -22.17     24.00
   20.2389    134.35    137.92    -24.34     24.00
   20.2490    135.68    137.89    -22.98     24.00
   20.2592    138.95    137.85    -19.67     24.00
   20.2694    136.45    137.80    -22.12     24.00
   20.2795    135.60    137.75    -22.92     24.00
   20.2897    137.28    137.69    -21.18     24.00
   20.2999    137.51    137.63    -20.89     24.00
   20.3100    136.01    137.56    -22.32     24.00
   20.3202    138.45    137.48    -19.80     24.00
   20.3304    136.55    137.39    -21.61     24.00
   20.3405    137.53    137.30    -20.54     24.00
   20.3507    137.71    137.20    -20.26     24.00
   20.3609    137.93    137.10    -19.94     24.00
   20.3710    138.64    136.99    -19.12     24.00
   20.3812    137.82    136.87    -19.82     24.00
   20.3914    137.29    136.74    -20.22     24.00
   20.4015    137.68    136.61    -19.70     24.00
   20.4117    139.68    136.47    -17.56     24.00
   20.4218    139.38    136.33    -17.72     24.00
   20.4320    135.80    136.18    -21.15     24.00
   20.4422    138.98    136.03    -17.82     24.00
   20.4523    139.54    135.87    -17.10     24.00
   20.4625    138.04    135.70    -18.43     24.00
   20.4727    138.24    135.53    -18.06     24.00
   20.4828    138.45    135.35    -17.67     24.00
   20.4930    138.01    135.17    -17.93     24.00
   20.5032    138.66    134.98    -17.09     24.00
   20.5133    138.37    134.78    -17.18     24.00
   20.5235    137.22    134.58    -18.13     24.00
   20.5337    138.89    134.38    -16.26     24.00
   20.5438    138.03    134.17    -16.91     24.00
   20.5540    135.43    133.96    -19.30     24.00
   20.5641    135.96    133.74    -18.55     24.00
   20.5743    138.88    133.51    -15.40     24.00
   20.5845    136.63    133.29    -17.43     24.00
   20.5946    137.88    133.06    -15.95     24.00
   20.6048    138.03    132.82    -15.56     24.00
   20.6150    134.89    132.58    -18.46     24.00
   20.6251    135.14    132.34    -17.97     24.00
   20.6353    133.57    132.09    -19.29     24.00
   20.6455    134.37    131.84    -18.24     24.00
   20.6556    135.43    131.59    -16.93     24.00
   20.6658    136.80    131.33    -15.30     24.00
   20.6760    134.68    131.07    -17.16     24.00
   20.6861    135.63    130.81    -15.95     24.00
   20.6963    134.48    130.54    -16.83     24.00
   20.7065    131.78    130.28    -19.27     24.00
   20.7166    132.09    130.01    -18.69     24.00
   20.7268    131.62    129.74    -18.89     24.00
   20.7369    131.70    129.46    -18.53     24.00
   20.7471    132.03    129.19    -17.93     24.00
   20.7573    132.49    128.91    -17.19     24.00
   20.7674    128.02    128.64    -21.39     24.00
   20.7776    131.76    128.36    -17.37     24.00
   20.7878    131.35    128.07    -17.49     24.00
   20.7979    129.70    127.79    -18.86     24.00
   20.8081    130.27    127.51    -18.01     24.00
   20.8183    129.30    127.23    -18.70     24.00
   20.8284    128.08    126.95    -19.64     24.00
   20.8386    128.96    126.67    -18.48     24.00
   20.8488    127.25    126.38    -19.90     24.00
   20.8589    125.52    126.10    -21.35     24.00
   20.8691    125.88    125.82    -20.71     24.00
   20.8792    126.98    125.54    -19.33     24.00
   20.8894    126.32    125.26    -19.71     24.00
   20.8996    127.62    124.98    -18.13     24.00
   20.9097    125.63    124.71    -19.85     24.00
   20.9199    124.80    124.43    -20.40     24.00
   20.9301    124.70    124.16    -20.23     24.00
   20.9402    125.00    123.89    -19.66     24.00
   20.9504    122.41    123.62    -21.98     24.00
   20.9606    124.59    123.35    -19.53     24.00
   20.9707    122.78    123.09    -21.08     24.00
   20.9809    121.37    122.83    -22.23     24.00
   20.9911    124.47    122.57    -18.87     24.00
   21.0012    122.67    122.31    -20.41     24.00
   21.0114    121.41    122.06    -21.42     24.00
   21.0216    122.09    121.81    -20.49     24.00
   21.0317    120.88    121.57    -21.46     24.00
   21.0419    120.14    121.33    -21.96     24.00
   21.0520    121.05    121.10    -20.82     24.00
   21.0622    120.15    120.87    -21.49     24.00
   21.0724    119.18    120.64    -22.23     24.00
   21.0825    119.22    120.42    -21.97     24.00
   21.0927    119.12    120.21    -21.86     24.00
   21.1029    118.87    120.00    -21.90     24.00
   21.1130    120.39    119.79    -20.17     24.00
   21.1232    119.43    119.59    -20.93     24.00
   21.1334    116.78    119.40    -23.39     24.00
   21.1435    117.88    119.22    -22.11     24.00
   21.1537    117.85    119.04    -21.96     24.00
   21.1639    116.58    118.87    -23.06     24.00
   21.1740    118.98    118.70    -20.49     24.00
   21.1842    116.96    118.54    -22.35     24.00
   21.1943    115.65    118.39    -23.51     24.00
   21.2045    117.87    118.25    -21.15     24.00
   21.2147    117.41    118.12    -21.48     24.00
   21.2248    118.24    117.99    -20.52     24.00
   21.2350    117.33    117.87    -21.31     24.00
   21.2452    117.13    117.76    -21.40     24.00
   21.2553    116.23    117.66    -22.20     24.00
   21.2655    114.40    117.57    -23.94     24.00
   21.2757    115.43    117.49    -22.83     24.00
   21.2858    114.66    117.41    -23.52     24.00
   21.2960    114.48    117.35    -23.64     24.00
   21.3062    116.41    117.29    -21.65     24.00
   21.3163    115.72    117.25    -22.30     24.00
   21.3265    117.42    117.21    -20.57     24.00
   21.3366    115.71    117.19    -22.25     24.00
   21.3468    113.43    117.18    -24.52     24.00
   21.3570    116.54    117.17    -21.40     24.00
   21.3671    115.41    117.18    -22.54     24.00
   21.3773    114.35    117.20    -23.62     24.00
   21.3875    114.68    117.23    -23.32     24.00
   21.3976    115.36    117.27    -22.68     24.00
   21.4078    114.62    117.32    -23.47     24.00
   21.4180    115.30    117.38    -22.85     24.00
   21.4281    116.21    117.45    -22.01     24.00
   21.4383    115.32    117.54    -22.99     24.00
   21.4485    115.46    117.63    -22.94     24.00
   21.4586    114.91    117.74    -23.60     24.00
   21.4688    113.13    117.86    -25.50     24.00
   21.4790    117.19    117.99    -21.57     24.00
   21.4891    116.12    118.14    -22.79     24.00
   21.4993    115.93    118.29    -23.13     24.00
   21.5094    115.99    118.46    -23.24     24.00
   21.5196    118.65    118.64    -20.76     24.00
   21.5298    116.54    118.83    -23.06     24.00
   21.5399    116.97    119.03    -22.83     24.00
   21.5501    117.09    119.25    -22.93     24.00
   21.5603    116.69    119.47    -23.55     24.00
   21.5704    118.40    119.71    -22.08     24.00
   21.5806    118.79    119.96    -21.94     24.00
   21.5908    117.97    120.22    -23.02     24.00
   21.6009    119.21    120.50    -22.06     24.00
   21.6111    118.79    120.78    -22.76     24.00
   21.6213    118.59    121.08    -23.26     24.00
   21.6314    118.32    121.38    -23.83     24.00
   21.6416    119.80    121.70    -22.67     24.00
   21.6517    120.78    122.03    -22.02     24.00
   21.6619    121.32    122.37    -21.82     24.00
   21.6721    120.91    122.72    -22.58     24.00
   21.6822    121.48    123.08    -22.37     24.00
   21.6924    123.98    123.45    -20.24     24.00
   21.7026    123.26    123.83    -21.34     24.00
   21.7127    122.56    124.22    -22.43     24.00
   21.7229    125.15    124.62    -20.24     24.00
   21.7331    124.05    125.03    -21.75     24.00
   21.7432    124.54    125.44    -21.67     24.00
   21.7534    125.51    125.87    -21.13     24.00
   21.7636    125.20    126.31    -21.88     24.00
   21.7737    125.30    126.75    -22.22     24.00
   21.7839    126.51    127.20    -21.46     24.00
   21.7941    126.46    127.65    -21.96     24.00
   21.8042    127.19    128.11    -21.69     24.00
   21.8144    128.80    128.58    -20.55     24.00
   21.8245    132.81    129.05    -17.01     24.00
   21.8347    129.06    129.53    -21.24     24.00
   21.8449    130.90    130.02    -19.89     24.00
   21.8550    131.79    130.51    -19.49     24.00
   21.8652    131.89    131.00    -19.88     24.00
   21.8754    134.62    131.50    -17.65     24.00
   21.8855    131.69    132.00    -21.08     24.00
   21.8957    133.79    132.50    -19.48     24.00
   21.9059    135.62    133.01    -18.16     24.00
   21.9160    135.88    133.51    -18.40     24.00
   21.9262    134.89    134.02    -19.90     24.00
   21.9364    136.04    134.52    -19.25     24.00
   21.9465    136.41    135.03    -19.39     24.00
   21.9567    137.98    135.53    -18.32     24.00
   21.9668    138.58    136.03    -18.22     24.00
   21.9770    138.96    136.54    -18.35     24.00
   21.9872    137.29    137.04    -20.52     24.00
   21.9973    137.72    137.53    -20.58     24.00
   22.0075    141.72    138.03    -17.08     24.00
   22.0177    141.09    138.51    -18.19     24.00
   22.0278    143.28    138.99    -16.48     24.00
   22.0380    140.47    139.47    -19.77     24.00
   22.0482    141.43    139.94    -19.28     24.00
   22.0583    141.48    140.40    -19.69     24.00
   22.0685    144.12    140.86    -17.51     24.00
   22.0787    141.41    141.31    -20.67     24.00
   22.0888    142.60    141.74    -19.91     24.00
   22.0990    142.62    142.17    -20.32     24.00
   22.1092    143.46    142.59    -19.90     24.00
   22.1193    143.88    142.99    -19.88     24.00
   22.1295    145.57    143.39    -18.59     24.00
   22.1396    144.24    143.77    -20.30     24.00
   22.1498    148.37    144.14    -16.54     24.00
   22.1600    145.66    144.50    -19.61     24.00
   22.1701    147.42    144.83    -18.18     24.00
   22.1803    146.70    145.16    -19.23     24.00
   22.1905    147.62    145.47    -18.62     24.00
   22.2006    148.45    145.77    -18.09     24.00
   22.2108    148.45    146.04    -18.36     24.00
   22.2210    149.13    146.31    -17.95     24.00
   22.2311    147.66    146.55    -19.66     24.00
   22.2413    148.86    146.77    -18.68     24.00
   22.2515    148.43    146.98    -19.32     24.00
   22.2616    146.77    147.16    -21.16     24.00
   22.2718    147.87    147.33    -20.23     24.00
   22.2819    149.46    147.48    -18.79     24.00
   22.2921    147.52    147.60    -20.85     24.00
   22.3023    149.13    147.71    -19.35     24.00
   22.3124    149.09    147.79    -19.47     24.00
   22.3226    149.18    147.85    -19.44     24.00
   22.3328    150.18    147.89    -18.48     24.00
   22.3429    150.82    147.90    -17.85     24.00
   22.3531    149.69    147.90    -18.98     24.00
   22.3633    150.34    147.87    -18.30     24.00
   22.3734    149.02    147.82    -19.57     24.00
   22.3836    147.84    147.74    -20.67     24.00
   22.3938    148.02    147.65    -20.40     24.00
   22.4039    149.98    147.53    -18.32     24.00
   22.4141    145.87    147.38    -22.28     24.00
   22.4243    149.13    147.21    -18.85     24.00
   22.4344    147.10    147.03    -20.70     24.00
   22.4446    146.17    146.81    -21.41     24.00
   22.4547    145.93    146.58    -21.42     24.00
   22.4649    146.95    146.32    -20.14     24.00
   22.4751    145.64    146.03    -21.16     24.00
   22.4852    146.49    145.73    -20.01     24.00
   22.4954    144.46    145.41    -21.72     24.00
   22.5056    145.00    145.06    -20.83     24.00
   22.5157    144.80    144.69    -20.66     24.00
   22.5259    142.50    144.30    -22.57     24.00
   22.5361    142.26    143.89    -22.40     24.00
   22.5462    140.01    143.46    -24.22     24.00
   22.5564    142.14    143.01    -21.64     24.00
   22.5666    140.08    142.54    -23.23     24.00
   22.5767    139.54    142.05    -23.28     24.00
   22.5869    140.02    141.54    -22.29     24.00
   22.5970    138.46    141.02    -23.33     24.00
   22.6072    139.02    140.48    -22.23     24.00
   22.6174    140.15    139.92    -20.54     24.00
   22.6275    136.30    139.35    -23.82     24.00
   22.6377    137.65    138.75    -21.87     24.00
   22.6479    136.30    138.15    -22.62     24.00
   22.6580    137.24    137.53    -21.06     24.00
   22.6682    134.21    136.90    -23.46     24.00
   22.6784    132.59    136.25    -24.43     24.00
   22.6885    133.43    135.59    -22.93     24.00
   22.6987    133.27    134.92    -22.42     24.00
   22.7089    132.21    134.23    -22.79     24.00
   22.7190    129.29    133.54    -25.02     24.00
   22.7292    132.18    132.84    -21.43     24.00
   22.7394    130.77    132.12    -22.12     24.00
   22.7495    127.38    131.40    -24.79     24.00
   22.7597    128.65    130.67    -22.79     24.00
   22.7698    129.48    129.93    -21.22     24.00
   22.7800    125.74    129.19    -24.22     24.00
   22.7902    125.60    128.43    -23.60     24.00
   22.8003    126.17    127.68    -22.28     24.00
   22.8105    124.35    126.91    -23.33     24.00
   22.8207    124.15    126.14    -22.76     24.00
   22.8308    124.05    125.38    -22.10     24.00
   22.8410    122.55    124.60    -22.82     24.00
   22.8512    122.73    123.82    -21.86     24.00
   22.8613    120.66    123.04    -23.15     24.00
   22.8715    119.29    122.26    -23.74     24.00
   22.8817    120.81    121.47    -21.43     24.00
   22.8918    120.04    120.69    -21.42     24.00
   22.9020    117.93    119.91    -22.75     24.00
   22.9121    117.88    119.13    -22.02     24.00
   22.9223    116.79    118.34    -22.32     24.00
   22.9325    116.18    117.56    -22.15     24.00
   22.9426    115.65    116.78    -21.90     24.00
   22.9528    115.93    116.00    -20.84     24.00
   22.9630    112.46    115.22    -23.53     24.00
   22.9731    113.38    114.46    -21.85     24.00
   22.9833    113.14    113.68    -21.31     24.00
   22.9935    111.39    112.92    -22.30     24.00
   23.0036    112.57    112.16    -20.36     24.00
   23.0138    111.30    111.40    -20.87     24.00
   23.0240    110.84    110.65    -20.58     24.00
   23.0341    109.77    109.91    -20.91     24.00
   23.0443    110.02    109.16    -19.91     24.00
   23.0545    108.81    108.43    -20.39     24.00
   23.0646    106.65    107.70    -21.82     24.00
   23.0748    107.21    106.98    -20.54     24.00
   23.0849    106.18    106.27    -20.86     24.00
   23.0951    106.71    105.56    -19.62     24.00
   23.1053    106.96    104.86    -18.67     24.00
   23.1154    105.45    104.17    -19.49     24.00
   23.1256    105.49    103.48    -18.76     24.00
   23.1358    104.21    102.80    -19.36     24.00
   23.1459    103.63    102.14    -19.28     24.00
   23.1561    103.28    101.47    -18.96     24.00
   23.1663    101.99    100.82    -19.60     24.00
   23.1764     99.41    100.18    -21.54     24.00
   23.1866    102.25     99.54    -18.06     24.00
   23.1968    100.66     98.92    -19.03     24.00
   23.2069     98.10     98.30    -20.97     24.00
   23.2171     99.73     97.69    -18.73     24.00
   23.2272     98.28     97.10    -19.59     24.00
   23.2374     98.31     96.51    -18.97     24.00
   23.2476     98.11     95.93    -18.59     24.00
   23.2577     98.68     95.36    -17.45     24.00
   23.2679     95.43     94.80    -20.14     24.00
   23.2781     96.35     94.24    -18.66     24.00
   23.2882     96.62     93.71    -17.86     24.00
   23.2984     94.23     93.17    -19.71     24.00
   23.3086     94.40     92.65    -19.02     24.00
   23.3187     93.71     92.14    -19.20     24.00
   23.3289     94.46     91.63    -17.94     24.00
   23.3391     95.02     91.13    -16.88     24.00
   23.3492     92.61     90.65    -18.81     24.00
   23.3594     92.08     90.17    -18.86     24.00
   23.3695     91.68     89.71    -18.80     24.00
   23.3797     92.48     89.25    -17.54     24.00
   23.3899     89.15     88.79    -20.41     24.00
   23.4000     92.26     88.36    -16.87     24.00
   23.4102     91.42     87.92    -17.27     24.00
   23.4204     88.61     87.50    -19.66     24.00
   23.4305     89.18     87.09    -18.68     24.00
   23.4407     87.63     86.68    -19.82     24.00
   23.4509     87.09     86.28    -19.96     24.00
   23.4610     88.73     85.89    -17.93     24.00
   23.4712     86.93     85.51    -19.35     24.00
   23.4814     87.82     85.14    -18.09     24.00
   23.4915     87.29     84.77    -18.25     24.00
   23.5017     87.07     84.41    -18.11     24.00
   23.5119     85.78     84.06    -19.05     24.00
   23.5220     84.84     83.72    -19.65     24.00
   23.5322     84.89     83.39    -19.27     24.00
   23.5423     84.54     83.06    -19.29     24.00
   23.5525     84.47     82.74    -19.04     24.00
   23.5627     84.18     82.42    -19.01     24.00
   23.5728     83.31     82.12    -19.58     24.00
   23.5830     84.50     81.82    -18.09     24.00
   23.5932     82.19     81.52    -20.10     24.00
   23.6033     82.96     81.24    -19.05     24.00
   23.6135     81.87     80.95    -19.85     24.00
   23.6237     82.73     80.68    -18.72     24.00
   23.6338     82.12     80.41    -19.06     24.00
   23.6440     80.82     80.14    -20.09     24.00
   23.6542     82.09     79.88    -18.56     24.00
   23.6643     81.16     79.63    -19.24     24.00
   23.6745     81.13     79.38    -19.02     24.00
   23.6846     80.17     79.14    -19.74     24.00
   23.6948     80.02     78.90    -19.65     24.00
   23.7050     80.62     78.67    -18.82     24.00
   23.7151     79.87     78.44    -19.34     24.00
   23.7253     79.16     78.22    -19.83     24.00
   23.7355     79.40     78.00    -19.37     24.00
   23.7456     77.12     77.79    -21.44     24.00
   23.7558     77.52     77.57    -20.82     24.00
   23.7660     77.73     77.37    -20.41     24.00
   23.7761     77.04     77.16    -20.89     24.00
   23.7863     78.95     76.96    -18.78     24.00
   23.7965     77.23     76.77    -20.31     24.00
   23.8066     76.80     76.58    -20.55     24.00
   23.8168     77.09     76.39    -20.07     24.00
   23.8270     77.21     76.20    -19.76     24.00
   23.8371     75.91     76.02    -20.88     24.00
   23.8473     76.22     75.84    -20.39     24.00
   23.8574     75.20     75.67    -21.24     24.00
   23.8676     75.19     75.49    -21.07     24.00
   23.8778     74.88     75.32    -21.21     24.00
   23.8879     74.68     75.15    -21.24     24.00
   23.8981     74.80     74.99    -20.96     24.00
   23.9083     73.16     74.82    -22.43     24.00
   23.9184     74.38     74.66    -21.05     24.00
   23.9286     74.45     74.51    -20.83     24.00
   23.9388     73.74     74.35    -21.38     24.00
   23.9489     72.54     74.20    -22.43     24.00
   23.9591     72.09     74.04    -22.72     24.00
   23.9693     73.18     73.89    -21.48     24.00
   23.9794     72.82     73.74    -21.69     24.00
   23.9896     73.23     73.60    -21.14     24.00
   23.9997     71.96     73.45    -22.26     24.00
   24.0099     73.32     73.31    -20.76     24.00
   24.0201     72.95     73.17    -20.99     24.00
   24.0302     72.13     73.03    -21.67     24.00
   24.0404     71.96     72.89    -21.70     24.00
   24.0506     72.09     72.75    -21.43     24.00
   24.0607     70.74     72.61    -22.64     24.00
   24.0709     70.96     72.48    -22.29     24.00
   24.0811     71.18     72.34    -21.93     24.00
   24.0912     69.73     72.21    -23.25     24.00
   24.1014     69.81     72.08    -23.04     24.00
   24.1116     69.62     71.95    -23.10     24.00
   24.1217     68.96     71.82    -23.63     24.00
   24.1319     70.57     71.69    -21.89     24.00
   24.1421     69.17     71.56    -23.16     24.00
   24.1522     71.06     71.44    -21.15     24.00
   24.1624     70.16     71.31    -21.92     24.00
   24.1725     68.87     71.19    -23.09     24.00
   24.1827     68.17     71.06    -23.66     24.00
   24.1929     67.80     70.94    -23.91     24.00
   24.2030     68.75     70.82    -22.84     24.00
   24.2132     68.33     70.69    -23.13     24.00
   24.2234     68.05     70.57    -23.29     24.00
   24.2335     68.62     70.45    -22.60     24.00
   24.2437     68.04     70.33    -23.06     24.00
   24.2539     68.29     70.21    -22.69     24.00
   24.2640     67.47     70.09    -23.39     24.00
   24.2742     66.70     69.97    -24.04     24.00
   24.2844     68.12     69.85    -22.50     24.00
   24.2945     67.00     69.74    -23.51     24.00
   24.3047     67.04     69.62    -23.35     24.00
   24.3148     67.16     69.50    -23.11     24.00
   24.3250     67.63     69.39    -22.53     24.00
   24.3352     66.57     69.27    -23.47     24.00
   24.3453     67.12     69.16    -22.81     24.00
   24.3555     65.81     69.04    -24.00     24.00
   24.3657     65.48     68.92    -24.21     24.00
   24.3758     66.63     68.81    -22.95     24.00
   24.3860     66.00     68.70    -23.47     24.00
   24.3962     64.87     68.58    -24.48     24.00
   24.4063     65.36     68.47    -23.88     24.00
   24.4165     66.13     68.36    -23.00     24.00
   24.4267     65.26     68.24    -23.75     24.00
   24.4368     65.03     68.13    -23.87     24.00
   24.4470     66.47     68.02    -22.32     24.00
   24.4572     65.37     67.90    -23.30     24.00
   24.4673     64.14     67.79    -24.42     24.00
   24.4775     65.55     67.68    -22.90     24.00
   24.4876     63.49     67.57    -24.85     24.00
   24.4978     62.54     67.46    -25.69     24.00
   24.5080     63.71     67.35    -24.41     24.00
   24.5181     64.33     67.24    -23.68     24.00
   24.5283     63.91     67.13    -23.99     24.00
   24.5385     64.32     67.01    -23.46     24.00
   24.5486     64.01     66.91    -23.67     24.00
   24.5588     63.44     66.79    -24.12     24.00
   24.5690     63.71     66.68    -23.74     24.00
   24.5791     62.66     66.58    -24.69     24.00
   24.5893     63.67     66.47    -23.57     24.00
   24.5995     63.59     66.36    -23.54     24.00
   24.6096     63.62     66.25    -23.40     24.00
   24.6198     62.57     66.14    -24.34     24.00
   24.6299     62.89     66.03    -23.91     24.00
   24.6401     64.34     65.92    -22.35     24.00
   24.6503     63.84     65.81    -22.74     24.00
   24.6604     62.72     65.70    -23.75     24.00
   24.6706     63.02     65.60    -23.35     24.00
   24.6808     62.36     65.49    -23.90     24.00
   24.6909     62.83     65.38    -23.32     24.00
   24.7011     63.00     65.27    -23.04     24.00
   24.7113     60.98     65.17    -24.96     24.00
   24.7214     61.20     65.06    -24.63     24.00
   24.7316     61.79     64.95    -23.93     24.00
   24.7418     62.13     64.84    -23.48     24.00
   24.7519     62.05     64.74    -23.46     24.00
   24.7621     63.59     64.63    -21.81     24.00
   24.7723     61.43     64.52    -23.86     24.00
   24.7824     61.16     64.42    -24.03     24.00
   24.7926     61.91     64.31    -23.17     24.00
   24.8027     60.73     64.21    -24.25     24.00
   24.8129     60.41     64.10    -24.46     24.00
   24.8231     62.31     63.99    -22.45     24.00
   24.8332     61.05     63.89    -23.61     24.00
   24.8434     61.75     63.78    -22.80     24.00
   24.8536     62.45     63.68    -22.00     24.00
   24.8637     59.93     63.57    -24.41     24.00
   24.8739     61.75     63.47    -22.49     24.00
   24.8841     60.34     63.36    -23.79     24.00
   24.8942     60.45     63.26    -23.58     24.00
   24.9044     60.77     63.15    -23.15     24.00
   24.9146     60.85     63.05    -22.97     24.00
   24.9247     60.09     62.94    -23.62     24.00
   24.9349     59.95     62.84    -23.66     24.00
   24.9450     60.92     62.74    -22.59     24.00
   24.9552     60.96     62.63    -22.44     24.00
   24.9654     60.70     62.53    -22.60     24.00
   24.9755     59.55     62.42    -23.64     24.00
   24.9857     59.38     62.32    -23.71     24.00
   24.9959     59.83     62.22    -23.16     24.00
   25.0060     58.46     62.11    -24.42     24.00
   25.0162     60.84     62.01    -21.94     24.00
   25.0264     59.09     61.91    -23.59     24.00
   25.0365     58.74     61.80    -23.83     24.00
   25.0467     58.66     61.70    -23.81     24.00
   25.0569     59.90     61.60    -22.47     24.00
   25.0670     59.24     61.50    -23.03     24.00
   25.0772     58.65     61.39    -23.51     24.00
   25.0874     59.66     61.29    -22.40     24.00
   25.0975     58.83     61.19    -23.13     24.00
   25.1077     58.58     61.09    -23.28     24.00
   25.1178     60.12     60.99    -21.64     24.00
   25.1280     59.24     60.89    -22.42     24.00
   25.1382     59.61     60.78    -21.94     24.00
   25.1483     58.82     60.68    -22.63     24.00
   25.1585     59.65     60.58    -21.70     24.00
   25.1687     59.21     60.48    -22.04     24.00
   25.1788     59.13     60.38    -22.02     24.00
   25.1890     58.36     60.28    -22.69     24.00
   25.1992     60.07     60.18    -20.88     24.00
   25.2093     58.49     60.08    -22.36     24.00
   25.2195     57.26     59.98    -23.49     24.00
   25.2297     58.71     59.88    -21.94     24.00
   25.2398     58.04     59.78    -22.51     24.00
   25.2500     57.96     59.68    -22.49     24.00
   25.2601     57.62     59.58    -22.73     24.00
   25.2703     57.32     59.48    -22.93     24.00
   25.2805     57.95     59.38    -22.20     24.00
   25.2906     58.24     59.28    -21.81     24.00
   25.3008     58.03     59.18    -21.92     24.00
   25.3110     57.71     59.08    -22.14     24.00
   25.3211     56.91     58.99    -22.85     24.00
   25.3313     57.45     58.89    -22.21     24.00
   25.3415     56.34     58.79    -23.22     24.00
   25.3516     57.26     58.69    -22.20     24.00
   25.3618     57.09     58.59    -22.27     24.00
   25.3720     56.85     58.50    -22.42     24.00
   25.3821     58.00     58.40    -21.17     24.00
   25.3923     56.16     58.30    -22.91     24.00
   25.4024     56.35     58.20    -22.62     24.00
   25.4126     57.51     58.11    -21.37     24.00
   25.4228     56.47     58.01    -22.31     24.00
   25.4329     57.42     57.91    -21.26     24.00
   25.4431     57.09     57.82    -21.50     24.00
   25.4533     56.73     57.72    -21.76     24.00
   25.4634     56.95     57.62    -21.44     24.00
   25.4736     56.80     57.53    -21.50     24.00
   25.4838     56.30     57.43    -21.90     24.00
   25.4939     57.31     57.34    -20.80     24.00
   25.5041     56.43     57.24    -21.58     24.00
   25.5143     57.54     57.14    -20.37     24.00
   25.5244     55.23     57.05    -22.59     24.00
   25.5346     56.18     56.95    -21.54     24.00
   25.5448     55.88     56.86    -21.75     24.00
   25.5549     56.12     56.76    -21.41     24.00
   25.5651     56.21     56.67    -21.23     24.00
   25.5752     56.21     56.58    -21.14     24.00
   25.5854     55.27     56.48    -21.98     24.00
   25.5956     55.31     56.39    -21.85     24.00
   25.6057     56.17     56.29    -20.89     24.00
   25.6159     54.97     56.20    -22.00     24.00
   25.6261     55.30     56.11    -21.58     24.00
   25.6362     56.37     56.01    -20.41     24.00
   25.6464     55.98     55.92    -20.71     24.00
   25.6566     56.08     55.83    -20.52     24.00
   25.6667     55.49     55.73    -21.01     24.00
   25.6769     55.10     55.64    -21.31     24.00
   25.6871     55.52     55.55    -20.80     24.00
   25.6972     55.49     55.46    -20.74     24.00
   25.7074     55.68     55.36    -20.45     24.00
   25.7175     55.40     55.27    -20.64     24.00
   25.7277     56.10     55.18    -19.85     24.00
   25.7379     54.57     55.09    -21.29     24.00
   25.7480     55.99     55.00    -19.78     24.00
   25.7582     53.99     54.91    -21.69     24.00
   25.7684     54.83     54.81    -20.75     24.00
   25.7785     55.09     54.72    -20.40     24.00
   25.7887     54.06     54.63    -21.34     24.00
   25.7989     54.25     54.54    -21.06     24.00
   25.8090     55.52     54.45    -19.70     24.00
   25.8192     55.26     54.36    -19.87     24.00
   25.8294     54.60     54.27    -20.44     24.00
   25.8395     55.30     54.18    -19.65     24.00
   25.8497     54.55     54.09    -20.31     24.00
   25.8599     53.43     54.00    -21.34     24.00
   25.8700     55.23     53.92    -19.46     24.00
   25.8802     54.19     53.83    -20.41     24.00
   25.8903     54.31     53.74    -20.20     24.00
   25.9005     54.62     53.65    -19.80     24.00
   25.9107     54.85     53.56    -19.48     24.00
   25.9208     53.97     53.48    -20.28     24.00
   25.9310     54.97     53.39    -19.19     24.00
   25.9412     52.95     53.30    -21.12     24.00
   25.9513     52.60     53.21    -21.38     24.00
   25.9615     53.95     53.13    -19.95     24.00
   25.9717     54.79     53.04    -19.02     24.00
   25.9818     53.88     52.95    -19.84     24.00
   25.9920     54.37     52.87    -19.27     24.00
   26.0022     53.37     52.78    -20.18     24.00
   26.0123     53.98     52.69    -19.48     24.00
   26.0225     54.09     52.61    -19.29     24.00
   26.0326     53.15     52.52    -20.14     24.00
   26.0428     53.20     52.44    -20.01     24.00
   26.0530     53.66     52.35    -19.46     24.00
   26.0631     53.35     52.27    -19.69     24.00
   26.0733     54.54     52.19    -18.42     24.00
   26.0835     53.34     52.10    -19.53     24.00
   26.0936     52.88     52.02    -19.91     24.00
   26.1038     52.15     51.94    -20.56     24.00
   26.1140     53.37     51.85    -19.25     24.00
   26.1241     53.09     51.77    -19.45     24.00
   26.1343     52.69     51.69    -19.77     24.00
   26.1445     53.38     51.60    -18.99     24.00
   26.1546     52.90     51.52    -19.39     24.00
   26.1648     51.96     51.44    -20.25     24.00
   26.1750     53.15     51.36    -18.98     24.00
   26.1851     52.77     51.28    -19.28     24.00
   26.1953     52.79     51.20    -19.18     24.00
   26.2054     52.84     51.12    -19.05     24.00
   26.2156     52.21     51.04    -19.60     24.00
   26.2258     53.35     50.96    -18.38     24.00
   26.2359     53.53     50.88    -18.12     24.00
   26.2461     52.23     50.80    -19.34     24.00
   26.2563     53.30     50.72    -18.19     24.00
   26.2664     51.79     50.65    -19.63     24.00
   26.2766     52.89     50.57    -18.45     24.00
   26.2868     53.12     50.49    -18.14     24.00
   26.2969     52.47     50.42    -18.72     24.00
   26.3071     52.46     50.34    -18.65     24.00
   26.3173     52.49     50.26    -18.54     24.00
   26.3274     52.17     50.19    -18.79     24.00
   26.3376     51.70     50.11    -19.18     24.00
   26.3477     51.31     50.04    -19.50     24.00
   26.3579     51.90     49.97    -18.84     24.00
   26.3681     51.32     49.89    -19.34     24.00
   26.3782     51.37     49.82    -19.22     24.00
   26.3884     51.63     49.75    -18.89     24.00
   26.3986     52.12     49.68    -18.33     24.00
   26.4087     52.65     49.61    -17.73     24.00
   26.4189     51.18     49.53    -19.12     24.00
   26.4291     52.35     49.46    -17.88     24.00
   26.4392     52.21     49.40    -17.96     24.00
   26.4494     50.43     49.33    -19.67     24.00
   26.4596     52.46     49.26    -17.57     24.00
   26.4697     50.94     49.19    -19.02     24.00
   26.4799     50.28     49.12    -19.61     24.00
   26.4901     51.33     49.06    -18.50     24.00
   26.5002     51.53     48.99    -18.23     24.00
   26.5104     51.35     48.93    -18.35     24.00
   26.5205     50.56     48.87    -19.08     24.00
   26.5307     50.47     48.80    -19.10     24.00
   26.5409     51.66     48.74    -17.85     24.00
   26.5510     51.13     48.68    -18.32     24.00
   26.5612     51.59     48.62    -17.80     24.00
   26.5714     50.91     48.56    -18.42     24.00
   26.5815     52.04     48.50    -17.23     24.00
   26.5917     51.46     48.44    -17.75     24.00
   26.6019     50.69     48.38    -18.46     24.00
   26.6120     51.02     48.33    -18.08     24.00
   26.6222     49.70     48.27    -19.34     24.00
   26.6324     51.55     48.22    -17.44     24.00
   26.6425     49.88     48.17    -19.06     24.00
   26.6527     49.79     48.11    -19.09     24.00
   26.6628     49.38     48.06    -19.45     24.00
   26.6730     51.36     48.01    -17.42     24.00
   26.6832     50.53     47.96    -18.20     24.00
   26.6933     50.53     47.92    -18.16     24.00
   26.7035     51.23     47.87    -17.41     24.00
   26.7137     50.08     47.83    -18.52     24.00
   26.7238     50.90     47.78    -17.65     24.00
   26.7340     50.41     47.74    -18.10     24.00
   26.7442     50.37     47.70    -18.10     24.00
   26.7543     50.23     47.66    -18.20     24.00
   26.7645     49.98     47.62    -18.41     24.00
   26.7747     50.70     47.58    -17.65     24.00
   26.7848     49.41     47.55    -18.91     24.00
   26.7950     50.94     47.51    -17.34     24.00
   26.8052     49.59     47.48    -18.66     24.00
   26.8153     50.34     47.45    -17.88     24.00
   26.8255     49.41     47.42    -18.78     24.00
   26.8356     50.22     47.39    -17.94     24.00
   26.8458     49.96     47.36    -18.17     24.00
   26.8560     50.43     47.34    -17.68     24.00
   26.8661     49.80     47.32    -18.29     24.00
   26.8763     51.31     47.30    -16.76     24.00
   26.8865     50.63     47.28    -17.42     24.00
   26.8966     50.30     47.26    -17.73     24.00
   26.9068     49.30     47.24    -18.71     24.00
   26.9170     50.59     47.23    -17.41     24.00
   26.9271     49.13     47.22    -18.86     24.00
   26.9373     51.38     47.21    -16.60     24.00
   26.9475     49.84     47.20    -18.13     24.00
   26.9576     49.88     47.19    -18.08     24.00
   26.9678     50.66     47.19    -17.30     24.00
   26.9779     49.84     47.19    -18.12     24.00
   26.9881     48.82     47.19    -19.14     24.00
   26.9983     50.52     47.19    -17.44     24.00
   27.0084     49.74     47.19    -18.22     24.00
   27.0186     50.35     47.20    -17.62     24.00
   27.0288     49.02     47.21    -18.96     24.00
   27.0389     50.01     47.22    -17.98     24.00
   27.0491     49.95     47.24    -18.06     24.00
   27.0593     50.82     47.25    -17.20     24.00
   27.0694     49.89     47.27    -18.15     24.00
   27.0796     49.99     47.29    -18.07     24.00
   27.0898     49.82     47.32    -18.27     24.00
   27.0999     50.22     47.34    -17.89     24.00
   27.1101     49.57     47.37    -18.57     24.00
   27.1202     49.06     47.40    -19.11     24.00
   27.1304     49.24     47.44    -18.97     24.00
   27.1406     49.13     47.47    -19.11     24.00
   27.1507     49.59     47.51    -18.69     24.00
   27.1609     49.44     47.55    -18.88     24.00
   27.1711     50.08     47.60    -18.29     24.00
   27.1812     50.03     47.65    -18.39     24.00
   27.1914     50.20     47.70    -18.27     24.00
   27.2016     49.93     47.75    -18.59     24.00
   27.2117     48.52     47.81    -20.06     24.00
   27.2219     48.74     47.86    -19.89     24.00
   27.2321     49.12     47.93    -19.58     24.00
   27.2422     48.95     47.99    -19.81     24.00
   27.2524     50.07     48.06    -18.76     24.00
   27.2626     49.99     48.13    -18.91     24.00
   27.2727     49.34     48.20    -19.63     24.00
   27.2829     50.12     48.28    -18.93     24.00
   27.2930     49.67     48.35    -19.45     24.00
   27.3032     49.53     48.44    -19.68     24.00
   27.3134     50.87     48.52    -18.42     24.00
   27.3235     48.96     48.61    -20.42     24.00
   27.3337     49.83     48.70    -19.64     24.00
   27.3439     49.76     48.79    -19.80     24.00
   27.3540     49.36     48.89    -20.30     24.00
   27.3642     50.36     48.99    -19.40     24.00
   27.3744     49.94     49.09    -19.92     24.00
   27.3845     48.84     49.19    -21.12     24.00
   27.3947     49.96     49.30    -20.11     24.00
   27.4049     50.32     49.41    -19.86     24.00
   27.4150     49.88     49.52    -20.41     24.00
   27.4252     49.95     49.64    -20.46     24.00
   27.4353     49.95     49.76    -20.58     24.00
   27.4455     49.95     49.88    -20.70     24.00
   27.4557     50.54     50.01    -20.24     24.00
   27.4658     50.21     50.13    -20.69     24.00
   27.4760     49.46     50.26    -21.57     24.00
   27.4862     49.45     50.40    -21.72     24.00
   27.4963     50.52     50.53    -20.78     24.00
   27.5065     51.01     50.67    -20.43     24.00
   27.5167     49.05     50.81    -22.53     24.00
   27.5268     50.32     50.95    -21.40     24.00
   27.5370     50.20     51.10    -21.67     24.00
   27.5472     50.02     51.25    -22.00     24.00
   27.5573     49.71     51.40    -22.46     24.00
   27.5675     51.34     51.55    -20.98     24.00
   27.5777     49.96     51.70    -22.51     24.00
   27.5878     51.67     51.86    -20.96     24.00
   27.5980     51.88     52.02    -20.91     24.00
   27.6081     51.24     52.18    -21.71     24.00
   27.6183     52.37     52.34    -20.74     24.00
   27.6285     50.34     52.51    -22.94     24.00
   27.6386     51.72     52.67    -21.72     24.00
   27.6488     51.52     52.84    -22.09     24.00
   27.6590     51.30     53.01    -22.48     24.00
   27.6691     52.26     53.18    -21.69     24.00
   27.6793     51.42     53.36    -22.71     24.00
   27.6895     52.34     53.53    -21.96     24.00
   27.6996     51.83     53.70    -22.64     24.00
   27.7098     52.62     53.88    -22.03     24.00
   27.7200     52.45     54.06    -22.38     24.00
   27.7301     52.75     54.24    -22.26     24.00
   27.7403     52.37     54.42    -22.82     24.00
   27.7504     52.20     54.60    -23.17     24.00
   27.7606     52.88     54.78    -22.67     24.00
   27.7708     53.60     54.96    -22.13     24.00
   27.7809     53.09     55.14    -22.82     24.00
   27.7911     53.99     55.33    -22.11     24.00
   27.8013     53.35     55.51    -22.93     24.00
   27.8114     53.45     55.69    -23.01     24.00
   27.8216     54.38     55.88    -22.27     24.00
   27.8318     53.24     56.06    -23.59     24.00
   27.8419     54.05     56.24    -22.96     24.00
   27.8521     54.01     56.43    -23.19     24.00
   27.8623     53.52     56.61    -23.86     24.00
   27.8724     54.04     56.79    -23.52     24.00
   27.8826     55.76     56.97    -21.98     24.00
   27.8928     55.26     57.15    -22.66     24.00
   27.9029     56.08     57.33    -22.02     24.00
   27.9131     55.65     57.51    -22.63     24.00
   27.9232     56.37     57.68    -22.08     24.00
   27.9334     56.26     57.86    -22.37     24.00
   27.9436     55.37     58.03    -23.43     24.00
   27.9537     57.51     58.20    -21.46     24.00
   27.9639     56.27     58.37    -22.87     24.00
   27.9741     57.15     58.54    -22.16     24.00
   27.9842     56.94     58.70    -22.53     24.00
   27.9944     58.31     58.87    -21.33     24.00
   28.0046     56.87     59.03    -22.93     24.00
   28.0147     58.45     59.19    -21.51     24.00
   28.0249     57.71     59.34    -22.40     24.00
   28.0351     56.93     59.50    -23.34     24.00
   28.0452     58.61     59.65    -21.81     24.00
   28.0554     57.82     59.80    -22.75     24.00
   28.0655     59.13     59.94    -21.58     24.00
   28.0757     59.41     60.08    -21.44     24.00
   28.0859     59.38     60.22    -21.61     24.00
   28.0960     58.26     60.35    -22.86     24.00
   28.1062     59.12     60.48    -22.13     24.00
   28.1164     58.77     60.61    -22.61     24.00
   28.1265     60.04     60.73    -21.46     24.00
   28.1367     59.40     60.85    -22.22     24.00
   28.1469     60.70     60.96    -21.03     24.00
   28.1570     60.89     61.07    -20.95     24.00
   28.1672     59.30     61.17    -22.64     24.00
   28.1774     60.55     61.28    -21.50     24.00
   28.1875     61.84     61.37    -20.30     24.00
   28.1977     61.43     61.46    -20.80     24.00
   28.2079     61.34     61.55    -20.98     24.00
   28.2180     60.96     61.63    -21.44     24.00
   28.2282     62.22     61.70    -20.25     24.00
   28.2383     63.24     61.77    -19.30     24.00
   28.2485     63.12     61.84    -19.49     24.00
   28.2587     62.99     61.90    -19.68     24.00
   28.2688     63.66     61.96    -19.07     24.00
   28.2790     63.51     62.00    -19.26     24.00
   28.2892     63.54     62.05    -19.28     24.00
   28.2993     64.23     62.09    -18.63     24.00
   28.3095     63.01     62.12    -19.88     24.00
   28.3197     64.63     62.15    -18.29     24.00
   28.3298     63.90     62.17    -19.04     24.00
   28.3400     63.02     62.18    -19.93     24.00
   28.3502     62.96     62.19    -20.00     24.00
   28.3603     63.71     62.20    -19.26     24.00
   28.3705     62.91     62.20    -20.06     24.00
   28.3806     64.04     62.19    -18.92     24.00
   28.3908     62.85     62.18    -20.10     24.00
   28.4010     63.04     62.16    -19.89     24.00
   28.4111     63.67     62.13    -19.23     24.00
   28.4213     62.79     62.10    -20.08     24.00
   28.4315     63.68     62.07    -19.16     24.00
   28.4416     63.97     62.03    -18.83     24.00
   28.4518     63.41     61.98    -19.34     24.00
   28.4620     63.69     61.93    -19.01     24.00
   28.4721     63.32     61.87    -19.32     24.00
   28.4823     62.79     61.81    -19.79     24.00
   28.4925     61.46     61.74    -21.05     24.00
   28.5026     63.52     61.66    -18.91     24.00
   28.5128     63.18     61.59    -19.18     24.00
   28.5230     62.72     61.50    -19.55     24.00
   28.5331     64.21     61.41    -17.97     24.00
   28.5433     63.79     61.32    -18.30     24.00
   28.5534     62.65     61.22    -19.34     24.00
   28.5636     62.71     61.12    -19.18     24.00
   28.5738     64.48     61.01    -17.30     24.00
   28.5839     62.55     60.90    -19.12     24.00
   28.5941     62.30     60.78    -19.25     24.00
   28.6043     62.39     60.66    -19.04     24.00
   28.6144     60.87     60.54    -20.44     24.00
   28.6246     61.44     60.41    -19.74     24.00
   28.6348     62.01     60.27    -19.03     24.00
   28.6449     60.29     60.14    -20.62     24.00
   28.6551     60.42     60.00    -20.35     24.00
   28.6653     61.17     59.85    -19.45     24.00
   28.6754     60.76     59.71    -19.72     24.00
   28.6856     59.85     59.56    -20.48     24.00
   28.6957     60.71     59.41    -19.47     24.00
   28.7059     60.61     59.25    -19.41     24.00
   28.7161     60.53     59.09    -19.33     24.00
   28.7262     59.43     58.93    -20.27     24.00
   28.7364     59.82     58.77    -19.72     24.00
   28.7466     59.77     58.60    -19.60     24.00
   28.7567     59.79     58.43    -19.41     24.00
   28.7669     57.90     58.26    -21.13     24.00
   28.7771     58.18     58.09    -20.68     24.00
   28.7872     58.69     57.92    -20.00     24.00
   28.7974     57.73     57.74    -20.78     24.00
   28.8076     58.71     57.56    -19.62     24.00
   28.8177     58.66     57.39    -19.50     24.00
   28.8279     57.10     57.20    -20.88     24.00
   28.8381     57.96     57.02    -19.83     24.00
   28.8482     56.47     56.84    -21.14     24.00
   28.8584     56.68     56.66    -20.75     24.00
   28.8685     56.61     56.48    -20.64     24.00
   28.8787     57.09     56.29    -19.97     24.00
   28.8889     56.80     56.10    -20.07     24.00
   28.8990     56.65     55.92    -20.04     24.00
   28.9092     55.56     55.73    -20.94     24.00
   28.9194     54.96     55.55    -21.36     24.00
   28.9295     54.66     55.36    -21.47     24.00
   28.9397     54.90     55.18    -21.05     24.00
   28.9499     54.48     54.99    -21.28     24.00
   28.9600     54.65     54.80    -20.92     24.00
   28.9702     54.41     54.62    -20.98     24.00
   28.9804     54.40     54.43    -20.80     24.00
   28.9905     54.73     54.25    -20.29     24.00
   29.0007     54.49     54.07    -20.35     24.00
   29.0108     53.79     53.88    -20.86     24.00
   29.0210     52.95     53.70    -21.52     24.00
   29.0312     52.59     53.52    -21.70     24.00
   29.0413     53.62     53.34    -20.49     24.00
   29.0515     51.04     53.16    -22.89     24.00
   29.0617     52.74     52.98    -21.01     24.00
   29.0718     52.29     52.81    -21.29     24.00
   29.0820     52.74     52.63    -20.66     24.00
   29.0922     53.45     52.46    -19.78     24.00
   29.1023     51.52     52.28    -21.53     24.00
   29.1125     51.20     52.11    -21.68     24.00
   29.1227     52.26     51.94    -20.45     24.00
   29.1328     51.37     51.77    -21.17     24.00
   29.1430     50.78     51.61    -21.60     24.00
   29.1531     50.99     51.44    -21.22     24.00
   29.1633     50.55     51.28    -21.50     24.00
   29.1735     51.10     51.12    -20.79     24.00
   29.1836     49.92     50.96    -21.81     24.00
   29.1938     50.35     50.80    -21.22     24.00
   29.2040     49.98     50.65    -21.44     24.00
   29.2141     49.37     50.49    -21.89     24.00
   29.2243     49.53     50.34    -21.58     24.00
   29.2345     49.68     50.19    -21.28     24.00
   29.2446     50.12     50.04    -20.69     24.00
   29.2548     49.27     49.90    -21.40     24.00
   29.2650     49.15     49.75    -21.37     24.00
   29.2751     47.65     49.61    -22.73     24.00
   29.2853     48.96     49.47    -21.28     24.00
   29.2955     48.72     49.33    -21.38     24.00
   29.3056     49.04     49.20    -20.93     24.00
   29.3158     48.20     49.07    -21.64     24.00
   29.3259     48.60     48.94    -21.11     24.00
   29.3361     47.54     48.81    -22.04     24.00
   29.3463     49.30     48.68    -20.15     24.00
   29.3564     47.60     48.55    -21.72     24.00
   29.3666     48.63     48.43    -20.57     24.00
   29.3768     46.99     48.31    -22.09     24.00
   29.3869     47.60     48.19    -21.36     24.00
   29.3971     47.52     48.07    -21.32     24.00
   29.4073     46.28     47.96    -22.45     24.00
   29.4174     47.66     47.85    -20.96     24.00
   29.4276     46.94     47.73    -21.56     24.00
   29.4378     47.05     47.62    -21.34     24.00
   29.4479     46.66     47.52    -21.63     24.00
   29.4581     46.08     47.41    -22.10     24.00
   29.4682     45.95     47.31    -22.13     24.00
   29.4784     46.37     47.21    -21.61     24.00
   29.4886     46.40     47.11    -21.48     24.00
   29.4987     45.10     47.01    -22.68     24.00
   29.5089     46.47     46.91    -21.21     24.00
   29.5191     45.30     46.81    -22.28     24.00
   29.5292     44.49     46.72    -23.00     24.00
   29.5394     45.46     46.63    -21.94     24.00
   29.5496     46.31     46.54    -21.00     24.00
   29.5597     44.63     46.45    -22.59     24.00
   29.5699     45.54     46.36    -21.59     24.00
   29.5801     45.77     46.27    -21.27     24.00
   29.5902     45.18     46.19    -21.78     24.00
   29.6004     44.80     46.11    -22.08     24.00
   29.6106     46.62     46.02    -20.17     24.00
   29.6207     45.06     45.94    -21.65     24.00
   29.6309     44.04     45.86    -22.59     24.00
   29.6410     44.37     45.78    -22.18     24.00
   29.6512     44.67     45.70    -21.80     24.00
   29.6614     44.86     45.62    -21.53     24.00
   29.6715     45.13     45.55    -21.19     24.00
   29.6817     44.62     45.47    -21.62     24.00
   29.6919     45.80     45.40    -20.37     24.00
   29.7020     43.82     45.32    -22.27     24.00
   29.7122     44.51     45.25    -21.51     24.00
   29.7224     44.33     45.17    -21.61     24.00
   29.7325     44.03     45.10    -21.84     24.00
   29.7427     44.79     45.03    -21.01     24.00
   29.7529     43.06     44.96    -22.67     24.00
   29.7630     44.55     44.89    -21.11     24.00
   29.7732     43.87     44.82    -21.72     24.00
   29.7833     43.62     44.75    -21.90     24.00
   29.7935     43.98     44.68    -21.47     24.00
   29.8037     43.82     44.61    -21.56     24.00
   29.8138     42.63     44.54    -22.68     24.00
   29.8240     44.51     44.47    -20.73     24.00
   29.8342     43.70     44.40    -21.47     24.00
   29.8443     43.24     44.33    -21.86     24.00
   29.8545     44.91     44.26    -20.12     24.00
   29.8647     42.83     44.19    -22.13     24.00
   29.8748     44.00     44.12    -20.89     24.00
   29.8850     43.14     44.05    -21.68     24.00
   29.8952     42.37     43.98    -22.38     24.00
   29.9053     43.44     43.91    -21.24     24.00
   29.9155     44.65     43.84    -19.96     24.00
   29.9257     42.85     43.76    -21.68     24.00
   29.9358     43.43     43.69    -21.03     24.00
   29.9460     42.96     43.62    -21.43     24.00
   29.9561     41.96     43.55    -22.36     24.00
   29.9663     43.32     43.48    -20.93     24.00
   29.9765     43.33     43.40    -20.84     24.00
   29.9866     41.74     43.33    -22.36     24.00
   29.9968     42.26     43.26    -21.77     24.00
   30.0070     42.49     43.18    -21.46     24.00
   30.0171     42.49     43.11    -21.39     24.00
   30.0273     42.20     43.03    -21.60     24.00
   30.0375     42.84     42.96    -20.89     24.00
   30.0476     41.86     42.88    -21.79     24.00
   30.0578     42.94     42.80    -20.63     24.00
   30.0680     42.15     42.73    -21.35     24.00
   30.0781     42.01     42.65    -21.41     24.00
   30.0883     41.84     42.57    -21.50     24.00
   30.0984     41.96     42.49    -21.30     24.00
   30.1086     41.07     42.41    -22.11     24.00
   30.1188     41.32     42.33    -21.78     24.00
   30.1289     41.48     42.25    -21.54     24.00
   30.1391     41.54     42.16    -21.39     24.00
   30.1493     41.70     42.08    -21.15     24.00
   30.1594     41.52     42.00    -21.25     24.00
   30.1696     40.78     41.91    -21.90     24.00
   30.1798     41.37     41.83    -21.23     24.00
   30.1899     41.42     41.74    -21.09     24.00
   30.2001     40.31     41.65    -22.11     24.00
   30.2103     41.52     41.57    -20.82     24.00
   30.2204     40.34     41.48    -21.91     24.00
   30.2306     40.30     41.39    -21.86     24.00
   30.2408     41.18     41.30    -20.89     24.00
   30.2509     39.96     41.21    -22.02     24.00
   30.2611     40.45     41.12    -21.44     24.00
   30.2712     39.96     41.03    -21.84     24.00
   30.2814     41.27     40.94    -20.44     24.00
   30.2916     39.34     40.84    -22.27     24.00
   30.3017     39.76     40.75    -21.76     24.00
   30.3119     40.92     40.66    -20.51     24.00
   30.3221     38.83     40.56    -22.50     24.00
   30.3322     39.62     40.47    -21.62     24.00
   30.3424     39.81     40.37    -21.33     24.00
   30.3526     39.19     40.27    -21.85     24.00
   30.3627     38.77     40.18    -22.18     24.00
   30.3729     39.95     40.08    -20.90     24.00
   30.3831     39.43     39.98    -21.32     24.00
   30.3932     39.46     39.88    -21.19     24.00
   30.4034     38.83     39.79    -21.73     24.00
   30.4135     38.36     39.69    -22.10     24.00
   30.4237     39.30     39.59    -21.06     24.00
   30.4339     39.57     39.49    -20.69     24.00
   30.4440     38.26     39.39    -21.90     24.00
   30.4542     38.59     39.28    -21.46     24.00
   30.4644     38.14     39.18    -21.81     24.00
   30.4745     38.91     39.08    -20.94     24.00
   30.4847     37.96     38.98    -21.79     24.00
   30.4949     38.39     38.88    -21.26     24.00
   30.5050     38.03     38.77    -21.51     24.00
   30.5152     37.75     38.67    -21.69     24.00
   30.5254     38.87     38.57    -20.47     24.00
   30.5355     37.51     38.46    -21.72     24.00
   30.5457     37.01     38.36    -22.12     24.00
   30.5559     37.69     38.26    -21.34     24.00
   30.5660     37.23     38.15    -21.69     24.00
   30.5762     37.02     38.05    -21.80     24.00
   30.5863     37.31     37.94    -21.40     24.00
   30.5965     37.03     37.84    -21.58     24.00
   30.6067     37.75     37.73    -20.75     24.00
   30.6168     37.02     37.63    -21.38     24.00
   30.6270     38.68     37.53    -19.62     24.00
   30.6372     37.07     37.42    -21.12     24.00
   30.6473     37.45     37.32    -20.64     24.00
   30.6575     37.47     37.21    -20.51     24.00
   30.6677     37.10     37.11    -20.78     24.00
   30.6778     37.41     37.00    -20.36     24.00
   30.6880     36.71     36.90    -20.96     24.00
   30.6982     37.17     36.79    -20.39     24.00
   30.7083     36.49     36.69    -20.97     24.00
   30.7185     36.59     36.59    -20.77     24.00
   30.7286     37.37     36.48    -19.88     24.00
   30.7388     36.57     36.38    -20.58     24.00
   30.7490     36.26     36.28    -20.79     24.00
   30.7591     36.56     36.17    -20.38     24.00
   30.7693     36.27     36.07    -20.57     24.00
   30.7795     36.91     35.97    -19.83     24.00
   30.7896     35.93     35.87    -20.71     24.00
   30.7998     35.91     35.76    -20.62     24.00
   30.8100     35.40     35.66    -21.03     24.00
   30.8201     36.36     35.56    -19.97     24.00
   30.8303     35.74     35.46    -20.49     24.00
   30.8405     36.21     35.36    -19.92     24.00
   30.8506     36.21     35.26    -19.82     24.00
   30.8608     36.29     35.16    -19.64     24.00
   30.8710     35.82     35.06    -20.01     24.00
   30.8811     35.74     34.96    -19.99     24.00
   30.8913     36.12     34.87    -19.52     24.00
   30.9014     34.55     34.77    -20.99     24.00
   30.9116     36.49     34.67    -18.95     24.00
   30.9218     36.23     34.58    -19.12     24.00
   30.9319     34.90     34.48    -20.35     24.00
   30.9421     35.41     34.39    -19.75     24.00
   30.9523     35.80     34.29    -19.26     24.00
   30.9624     35.34     34.20    -19.63     24.00
   30.9726     35.50     34.10    -19.37     24.00
   30.9828     35.56     34.01    -19.22     24.00
   30.9929     35.15     33.92    -19.54     24.00
   31.0031     35.95     33.83    -18.65     24.00
   31.0133     34.92     33.74    -19.59     24.00
   31.0234     34.88     33.65    -19.54     24.00
   31.0336     34.87     33.56    -19.46     24.00
   31.0437     35.90     33.47    -18.34     24.00
   31.0539     34.57     33.38    -19.58     24.00
   31.0641     35.10     33.30    -18.97     24.00
   31.0742     34.66     33.21    -19.32     24.00
   31.0844     34.77     33.13    -19.13     24.00
   31.0946     35.33     33.04    -18.48     24.00
   31.1047     34.34     32.96    -19.39     24.00
   31.1149     34.35     32.88    -19.30     24.00
   31.1251     35.47     32.79    -18.09     24.00
   31.1352     34.21     32.71    -19.27     24.00
   31.1454     33.38     32.63    -20.02     24.00
   31.1556     35.35     32.55    -17.97     24.00
   31.1657     34.63     32.48    -18.62     24.00
   31.1759     35.52     32.40    -17.65     24.00
   31.1860     34.88     32.32    -18.21     24.00
   31.1962     34.93     32.25    -18.09     24.00
   31.2064     33.93     32.17    -19.01     24.00
   31.2165     34.37     32.10    -18.50     24.00
   31.2267     34.24     32.03    -18.56     24.00
   31.2369     34.08     31.95    -18.64     24.00
   31.2470     34.27     31.88    -18.38     24.00
   31.2572     34.35     31.81    -18.23     24.00
   31.2674     34.16     31.74    -18.35     24.00
   31.2775     34.17     31.68    -18.28     24.00
   31.2877     34.18     31.61    -18.20     24.00
   31.2979     34.09     31.54    -18.22     24.00
   31.3080     34.63     31.48    -17.62     24.00
   31.3182     34.42     31.41    -17.76     24.00
   31.3284     34.05     31.35    -18.07     24.00
   31.3385     34.07     31.29    -17.99     24.00
   31.3487     34.36     31.23    -17.64     24.00
   31.3588     34.44     31.17    -17.50     24.00
   31.3690     34.40     31.11    -17.48     24.00
   31.3792     33.13     31.05    -18.69     24.00
   31.3893     34.11     30.99    -17.65     24.00
   31.3995     33.15     30.94    -18.56     24.00
   31.4097     34.11     30.88    -17.54     24.00
   31.4198     33.27     30.83    -18.33     24.00
   31.4300     33.93     30.77    -17.61     24.00
   31.4402     34.34     30.72    -17.15     24.00
   31.4503     33.45     30.67    -17.99     24.00
   31.4605     33.71     30.62    -17.68     24.00
   31.4707     33.49     30.57    -17.85     24.00
   31.4808     33.91     30.52    -17.38     24.00
   31.4910     33.64     30.48    -17.61     24.00
   31.5011     33.87     30.43    -17.33     24.00
   31.5113     33.50     30.39    -17.66     24.00
   31.5215     33.04     30.34    -18.07     24.00
   31.5316     33.65     30.30    -17.42     24.00
   31.5418     33.40     30.26    -17.63     24.00
   31.5520     33.34     30.22    -17.65     24.00
   31.5621     33.47     30.18    -17.48     24.00
   31.5723     34.60     30.14    -16.31     24.00
   31.5825     33.72     30.10    -17.15     24.00
   31.5926     33.88     30.06    -16.95     24.00
   31.6028     33.29     30.03    -17.51     24.00
   31.6130     33.25     29.99    -17.51     24.00
   31.6231     33.72     29.96    -17.01     24.00
   31.6333     32.80     29.93    -17.90     24.00
   31.6435     33.70     29.90    -16.97     24.00
   31.6536     32.01     29.87    -18.63     24.00
   31.6638     32.23     29.84    -18.38     24.00
   31.6739     32.86     29.81    -17.72     24.00
   31.6841     32.66     29.78    -17.89     24.00
   31.6943     33.07     29.75    -17.45     24.00
   31.7044     33.04     29.73    -17.46     24.00
   31.7146     34.26     29.70    -16.21     24.00
   31.7248     32.53     29.68    -17.92     24.00
   31.7349     32.86     29.66    -17.57     24.00
   31.7451     32.91     29.63    -17.49     24.00
   31.7553     32.63     29.61    -17.75     24.00
   31.7654     33.79     29.59    -16.57     24.00
   31.7756     33.74     29.57    -16.60     24.00
   31.7858     33.11     29.56    -17.22     24.00
   31.7959     33.13     29.54    -17.18     24.00
   31.8061     33.35     29.52    -16.94     24.00
   31.8162     33.05     29.51    -17.23     24.00
   31.8264     32.88     29.49    -17.38     24.00
   31.8366     33.02     29.48    -17.23     24.00
   31.8467     32.00     29.47    -18.24     24.00
   31.8569     32.21     29.46    -18.02     24.00
   31.8671     33.37     29.45    -16.85     24.00
   31.8772     32.83     29.44    -17.38     24.00
   31.8874     32.29     29.43    -17.91     24.00
   31.8976     33.38     29.42    -16.81     24.00
   31.9077     32.98     29.41    -17.20     24.00
   31.9179     33.13     29.41    -17.05     24.00
   31.9281     33.13     29.40    -17.04     24.00
   31.9382     32.05     29.40    -18.12     24.00
   31.9484     32.19     29.39    -17.97     24.00
   31.9586     33.05     29.39    -17.11     24.00
   31.9687     32.99     29.39    -17.17     24.00
   31.9789     32.31     29.39    -17.85     24.00
   31.9890     32.52     29.39    -17.64     24.00
   31.9992     32.73     29.39    -17.43     24.00
   32.0094     32.56     29.39    -17.60     24.00
   32.0195     32.72     29.39    -17.44     24.00
   32.0297     33.42     29.40    -16.75     24.00
   32.0399     33.21     29.40    -16.96     24.00
   32.0500     33.60     29.41    -16.58     24.00
   32.0602     32.43     29.41    -17.75     24.00
   32.0704     32.68     29.42    -17.51     24.00
   32.0805     32.23     29.42    -17.96     24.00
   32.0907     33.10     29.43    -17.10     24.00
   32.1009     32.66     29.44    -17.55     24.00
   32.1110     32.85     29.45    -17.37     24.00
   32.1212     31.76     29.46    -18.47     24.00
   32.1313     32.46     29.47    -17.78     24.00
   32.1415     33.01     29.48    -17.24     24.00
   32.1517     31.79     29.49    -18.47     24.00
   32.1618     32.76     29.51    -17.52     24.00
   32.1720     32.40     29.52    -17.89     24.00
   32.1822     33.21     29.54    -17.10     24.00
   32.1923     32.50     29.55    -17.82     24.00
   32.2025     32.79     29.57    -17.55     24.00
   32.2127     32.79     29.58    -17.56     24.00
   32.2228     32.71     29.60    -17.66     24.00
   32.2330     33.03     29.62    -17.36     24.00
   32.2432     33.64     29.63    -16.76     24.00
   32.2533     32.48     29.65    -17.94     24.00
   32.2635     33.09     29.67    -17.35     24.00
   32.2737     32.15     29.69    -18.31     24.00
   32.2838     32.25     29.71    -18.23     24.00
   32.2940     33.87     29.73    -16.63     24.00
   32.3041     32.24     29.75    -18.28     24.00
   32.3143     32.40     29.78    -18.15     24.00
   32.3245     32.32     29.80    -18.25     24.00
   32.3346     33.15     29.82    -17.44     24.00
   32.3448     32.10     29.85    -18.52     24.00
   32.3550     32.28     29.87    -18.36     24.00
   32.3651     32.77     29.89    -17.89     24.00
   32.3753     32.23     29.92    -18.46     24.00
   32.3855     32.57     29.94    -18.14     24.00
   32.3956     31.66     29.97    -19.08     24.00
   32.4058     32.34     30.00    -18.43     24.00
   32.4160     32.18     30.02    -18.61     24.00
   32.4261     31.49     30.05    -19.33     24.00
   32.4363     32.63     30.08    -18.22     24.00
   32.4464     33.12     30.11    -17.76     24.00
   32.4566     32.13     30.13    -18.77     24.00
   32.4668     32.49     30.16    -18.44     24.00
   32.4769     32.92     30.19    -18.04     24.00
   32.4871     32.30     30.22    -18.69     24.00
   32.4973     32.34     30.25    -18.68     24.00
   32.5074     32.02     30.28    -19.03     24.00
   32.5176     33.26     30.31    -17.82     24.00
   32.5278     32.79     30.34    -18.32     24.00
   32.5379     33.01     30.37    -18.13     24.00
   32.5481     32.28     30.40    -18.89     24.00
   32.5583     32.57     30.43    -18.63     24.00
   32.5684     33.02     30.46    -18.21     24.00
   32.5786     31.98     30.49    -19.28     24.00
   32.5888     32.22     30.53    -19.08     24.00
   32.5989     32.69     30.56    -18.64     24.00
   32.6091     31.05     30.59    -20.31     24.00
   32.6192     31.96     30.62    -19.43     24.00
   32.6294     31.96     30.65    -19.46     24.00
   32.6396     32.23     30.69    -19.23     24.00
   32.6497     32.25     30.72    -19.24     24.00
   32.6599     32.49     30.75    -19.03     24.00
   32.6701     31.62     30.78    -19.93     24.00
   32.6802     32.20     30.81    -19.38     24.00
   32.6904     32.59     30.85    -19.03     24.00
   32.7006     31.35     30.88    -20.30     24.00
   32.7107     32.05     30.91    -19.63     24.00
   32.7209     32.20     30.94    -19.51     24.00
   32.7311     31.89     30.98    -19.86     24.00
   32.7412     31.63     31.01    -20.15     24.00
   32.7514     31.64     31.04    -20.17     24.00
   32.7615     32.48     31.07    -19.36     24.00
   32.7717     32.09     31.10    -19.78     24.00
   32.7819     32.20     31.14    -19.71     24.00
   32.7920     32.67     31.17    -19.27     24.00
   32.8022     31.74     31.20    -20.23     24.00
   32.8124     32.00     31.23    -20.00     24.00
   32.8225     32.01     31.26    -20.02     24.00
   32.8327     31.57     31.29    -20.49     24.00
   32.8429     32.26     31.32    -19.83     24.00
   32.8530     32.00     31.35    -20.12     24.00
   32.8632     32.24     31.38    -19.91     24.00
   32.8734     32.50     31.41    -19.68     24.00
   32.8835     32.12     31.44    -20.09     24.00
   32.8937     31.90     31.47    -20.34     24.00
   32.9039     32.52     31.50    -19.75     24.00
   32.9140     32.21     31.53    -20.09     24.00
   32.9242     32.74     31.56    -19.59     24.00
   32.9343     32.30     31.58    -20.05     24.00
   32.9445     32.05     31.61    -20.33     24.00
   32.9547     31.54     31.64    -20.87     24.00
   32.9648     32.54     31.66    -19.89     24.00
   32.9750     31.70     31.69    -20.76     24.00
   32.9852     31.95     31.71    -20.53     24.00
   32.9953     32.60     31.74    -19.91     24.00
   33.0055     32.12     31.76    -20.41     24.00
   33.0157     32.20     31.79    -20.36     24.00
   33.0258     33.40     31.81    -19.18     24.00
   33.0360     32.07     31.83    -20.53     24.00
   33.0462     32.62     31.86    -20.01     24.00
   33.0563     32.97     31.88    -19.68     24.00
   33.0665     32.41     31.90    -20.26     24.00
   33.0766     31.52     31.92    -21.17     24.00
   33.0868     32.73     31.94    -19.98     24.00
   33.0970     32.06     31.96    -20.67     24.00
   33.1071     32.09     31.98    -20.66     24.00
   33.1173     31.79     31.99    -20.97     24.00
   33.1275     32.22     32.01    -20.56     24.00
   33.1376     31.84     32.03    -20.96     24.00
   33.1478     32.17     32.04    -20.64     24.00
   33.1580     31.76     32.06    -21.07     24.00
   33.1681     31.30     32.07    -21.54     24.00
   33.1783     33.27     32.09    -19.59     24.00
   33.1885     32.21     32.10    -20.66     24.00
   33.1986     31.62     32.11    -21.26     24.00
   33.2088     32.66     32.12    -20.23     24.00
   33.2189     31.97     32.13    -20.93     24.00
   33.2291     32.18     32.14    -20.73     24.00
   33.2393     32.13     32.15    -20.79     24.00
   33.2494     32.09     32.16    -20.84     24.00
   33.2596     31.53     32.17    -21.41     24.00
   33.2698     32.66     32.17    -20.28     24.00
   33.2799     32.71     32.18    -20.24     24.00
   33.2901     32.02     32.18    -20.93     24.00
   33.3003     32.23     32.19    -20.73     24.00
   33.3104     32.29     32.19    -20.67     24.00
   33.3206     32.60     32.19    -20.36     24.00
   33.3308     32.93     32.19    -20.03     24.00
   33.3409     32.24     32.19    -20.72     24.00
   33.3511     32.76     32.19    -20.20     24.00
   33.3613     32.33     32.19    -20.63     24.00
   33.3714     32.80     32.19    -20.16     24.00
   33.3816     33.10     32.18    -19.85     24.00
   33.3917     32.63     32.18    -20.32     24.00
   33.4019     32.20     32.17    -20.74     24.00
   33.4121     33.01     32.17    -19.93     24.00
   33.4222     32.23     32.16    -20.70     24.00
   33.4324     31.76     32.15    -21.16     24.00
   33.4426     32.49     32.14    -20.42     24.00
   33.4527     32.11     32.13    -20.79     24.00
   33.4629     32.18     32.12    -20.71     24.00
   33.4731     32.67     32.11    -20.21     24.00
   33.4832     31.78     32.10    -21.09     24.00
   33.4934     31.40     32.08    -21.45     24.00
   33.5036     32.30     32.07    -20.54     24.00
   33.5137     32.51     32.06    -20.32     24.00
   33.5239     31.84     32.04    -20.97     24.00
   33.5340     30.90     32.02    -21.89     24.00
   33.5442     31.43     32.00    -21.34     24.00
   33.5544     31.87     31.99    -20.89     24.00
   33.5645     32.12     31.97    -20.62     24.00
   33.5747     31.38     31.95    -21.34     24.00
   33.5849     30.80     31.92    -21.89     24.00
   33.5950     31.97     31.90    -20.70     24.00
   33.6052     30.65     31.88    -22.00     24.00
   33.6154     30.68     31.86    -21.95     24.00
   33.6255     31.60     31.83    -21.00     24.00
   33.6357     31.27     31.81    -21.31     24.00
   33.6459     31.08     31.78    -21.47     24.00
   33.6560     31.05     31.75    -21.47     24.00
   33.6662     30.55     31.73    -21.95     24.00
   33.6764     30.64     31.70    -21.83     24.00
   33.6865     30.76     31.67    -21.68     24.00
   33.6967     30.88     31.64    -21.53     24.00
   33.7068     30.78     31.61    -21.60     24.00
   33.7170     31.41     31.58    -20.94     24.00
   33.7272     30.58     31.54    -21.73     24.00
   33.7373     29.95     31.51    -22.33     24.00
   33.7475     30.14     31.48    -22.11     24.00
   33.7577     29.40     31.44    -22.81     24.00
   33.7678     29.74     31.41    -22.44     24.00
   33.7780     30.48     31.37    -21.66     24.00
   33.7882     30.66     31.34    -21.45     24.00
   33.7983     29.18     31.30    -22.89     24.00
   33.8085     29.87     31.26    -22.16     24.00
   33.8187     29.00     31.23    -23.00     24.00
   33.8288     30.01     31.19    -21.95     24.00
   33.8390     29.85     31.15    -22.07     24.00
   33.8491     29.26     31.11    -22.62     24.00
   33.8593     29.32     31.07    -22.52     24.00
   33.8695     28.86     31.03    -22.94     24.00
   33.8796     29.88     30.99    -21.88     24.00
   33.8898     29.40     30.95    -22.32     24.00
   33.9000     29.42     30.91    -22.26     24.00
   33.9101     29.10     30.87    -22.54     24.00
   33.9203     29.38     30.82    -22.21     24.00
   33.9305     29.00     30.78    -22.55     24.00
   33.9406     28.87     30.74    -22.64     24.00
   33.9508     28.96     30.69    -22.50     24.00
   33.9610     28.84     30.65    -22.58     24.00
   33.9711     27.73     30.61    -23.65     24.00
   33.9813     28.84     30.56    -22.49     24.00
   33.9915     28.54     30.52    -22.75     24.00
   34.0016     29.06     30.47    -22.18     24.00
   34.0118     28.41     30.42    -22.78     24.00
   34.0219     28.65     30.38    -22.50     24.00
   34.0321     28.30     30.33    -22.80     24.00
   34.0423     28.30     30.29    -22.76     24.00
   34.0524     28.50     30.24    -22.51     24.00
   34.0626     26.71     30.19    -24.25     24.00
   34.0728     28.02     30.15    -22.90     24.00
   34.0829     28.07     30.10    -22.80     24.00
   34.0931     28.10     30.05    -22.72     24.00
   34.1033     27.78     30.01    -23.00     24.00
   34.1134     28.20     29.96    -22.53     24.00
   34.1236     28.61     29.91    -22.07     24.00
   34.1338     27.91     29.86    -22.72     24.00
   34.1439     27.78     29.81    -22.80     24.00
   34.1541     28.41     29.77    -22.13     24.00
   34.1642     28.40     29.72    -22.09     24.00
   34.1744     27.36     29.67    -23.08     24.00
   34.1846     27.88     29.62    -22.51     24.00
   34.1947     28.04     29.57    -22.30     24.00
   34.2049     27.48     29.53    -22.82     24.00
   34.2151     27.41     29.48    -22.84     24.00
   34.2252     27.65     29.43    -22.55     24.00
   34.2354     27.59     29.38    -22.56     24.00
   34.2456     27.39     29.33    -22.71     24.00
   34.2557     27.55     29.29    -22.51     24.00
   34.2659     27.12     29.24    -22.89     24.00
   34.2761     27.35     29.19    -22.61     24.00
   34.2862     27.05     29.14    -22.86     24.00
   34.2964     27.09     29.10    -22.78     24.00
   34.3066     26.76     29.05    -23.06     24.00
   34.3167     27.57     29.00    -22.20     24.00
   34.3269     27.68     28.95    -22.04     24.00
   34.3370     27.44     28.91    -22.24     24.00
   34.3472     27.91     28.86    -21.72     24.00
   34.3574     27.07     28.81    -22.51     24.00
   34.3675     27.28     28.77    -22.26     24.00
   34.3777     26.72     28.72    -22.77     24.00
   34.3879     27.23     28.67    -22.21     24.00
   34.3980     26.97     28.63    -22.43     24.00
   34.4082     27.79     28.58    -21.56     24.00
   34.4184     26.57     28.54    -22.74     24.00
   34.4285     27.26     28.49    -22.00     24.00
   34.4387     27.01     28.44    -22.20     24.00
   34.4489     26.88     28.40    -22.29     24.00
   34.4590     26.44     28.36    -22.69     24.00
   34.4692     26.74     28.31    -22.34     24.00
   34.4793     27.10     28.27    -21.94     24.00
   34.4895     27.41     28.22    -21.58     24.00
   34.4997     27.05     28.18    -21.90     24.00
   34.5098     26.17     28.14    -22.74     24.00
   34.5200     26.74     28.09    -22.12     24.00
   34.5302     27.46     28.05    -21.36     24.00
   34.5403     26.22     28.01    -22.56     24.00
   34.5505     26.27     27.97    -22.47     24.00
   34.5607     26.64     27.92    -22.05     24.00
   34.5708     26.79     27.88    -21.86     24.00
   34.5810     27.01     27.84    -21.60     24.00
   34.5912     26.99     27.80    -21.58     24.00
   34.6013     26.50     27.76    -22.03     24.00
   34.6115     26.87     27.72    -21.62     24.00
   34.6217     26.76     27.68    -21.69     24.00
   34.6318     27.13     27.64    -21.28     24.00
   34.6420     26.05     27.60    -22.32     24.00
   34.6521     26.25     27.56    -22.08     24.00
   34.6623     26.22     27.52    -22.07     24.00
   34.6725     26.90     27.48    -21.35     24.00
   34.6826     26.50     27.45    -21.72     24.00
   34.6928     26.27     27.41    -21.91     24.00
   34.7030     26.41     27.37    -21.73     24.00
   34.7131     25.91     27.34    -22.20     24.00
   34.7233     26.16     27.30    -21.91     24.00
   34.7335     26.13     27.26    -21.90     24.00
   34.7436     26.47     27.23    -21.53     24.00
   34.7538     26.79     27.19    -21.17     24.00
   34.7640     26.33     27.16    -21.60     24.00
   34.7741     26.25     27.12    -21.64     24.00
   34.7843     26.37     27.09    -21.49     24.00
   34.7944     26.07     27.06    -21.76     24.00
   34.8046     26.13     27.02    -21.66     24.00
   34.8148     26.12     26.99    -21.64     24.00
   34.8249     25.93     26.96    -21.80     24.00
   34.8351     26.60     26.93    -21.10     24.00
   34.8453     26.46     26.90    -21.21     24.00
   34.8554     26.46     26.86    -21.17     24.00
   34.8656     26.37     26.83    -21.23     24.00
   34.8758     26.16     26.80    -21.41     24.00
   34.8859     26.29     26.77    -21.25     24.00
   34.8961     25.95     26.74    -21.56     24.00
   34.9063     26.08     26.71    -21.40     24.00
   34.9164     26.46     26.69    -21.00     24.00
   34.9266     25.62     26.66    -21.81     24.00
   34.9367     26.32     26.63    -21.08     24.00
   34.9469     26.73     26.60    -20.64     24.00
   34.9571     25.57     26.57    -21.77     24.00
   34.9672     25.91     26.55    -21.41     24.00
   34.9774     25.66     26.52    -21.63     24.00
   34.9876     26.23     26.49    -21.03     24.00
   34.9977     26.06     26.47    -21.18     24.00
   35.0079     25.99     26.44    -21.22     24.00
   35.0181     25.47     26.42    -21.72     24.00
   35.0282     26.13     26.39    -21.03     24.00
   35.0384     25.40     26.37    -21.74     24.00
   35.0486     25.94     26.34    -21.17     24.00
   35.0587     26.07     26.32    -21.02     24.00
   35.0689     25.69     26.30    -21.38     24.00
   35.0791     26.01     26.28    -21.04     24.00
   35.0892     25.99     26.25    -21.03     24.00
   35.0994     25.10     26.23    -21.90     24.00
   35.1095     26.11     26.21    -20.87     24.00
   35.1197     25.37     26.19    -21.59     24.00
   35.1299     26.07     26.17    -20.87     24.00
   35.1400     26.29     26.15    -20.63     24.00
   35.1502     25.60     26.12    -21.29     24.00
   35.1604     25.97     26.10    -20.90     24.00
   35.1705     25.25     26.08    -21.60     24.00
   35.1807     25.48     26.07    -21.36     24.00
   35.1909     25.95     26.05    -20.87     24.00
   35.2010     25.82     26.03    -20.98     24.00
   35.2112     26.13     26.01    -20.65     24.00
   35.2214     25.15     25.99    -21.61     24.00
   35.2315     25.75     25.97    -20.99     24.00
   35.2417     26.02     25.96    -20.71     24.00
   35.2518     25.38     25.94    -21.33     24.00
   35.2620     25.68     25.92    -21.01     24.00
   35.2722     25.64     25.90    -21.03     24.00
   35.2823     25.05     25.89    -21.61     24.00
   35.2925     25.16     25.87    -21.48     24.00
   35.3027     25.27     25.86    -21.36     24.00
   35.3128     25.54     25.84    -21.07     24.00
   35.3230     25.23     25.83    -21.37     24.00
   35.3332     25.23     25.81    -21.35     24.00
   35.3433     25.15     25.80    -21.42     24.00
   35.3535     25.85     25.78    -20.70     24.00
   35.3637     25.57     25.77    -20.97     24.00
   35.3738     25.18     25.75    -21.34     24.00
   35.3840     25.75     25.74    -20.76     24.00
   35.3942     24.79     25.73    -21.71     24.00
   35.4043     24.93     25.71    -21.55     24.00
   35.4145     25.30     25.70    -21.17     24.00
   35.4246     25.44     25.69    -21.02     24.00
   35.4348     25.47     25.67    -20.97     24.00
   35.4450     25.69     25.66    -20.74     24.00
   35.4551     25.18     25.65    -21.24     24.00
   35.4653     25.70     25.64    -20.71     24.00
   35.4755     25.82     25.63    -20.58     24.00
   35.4856     25.72     25.62    -20.67     24.00
   35.4958     25.54     25.60    -20.83     24.00
   35.5060     25.21     25.59    -21.15     24.00
   35.5161     24.93     25.58    -21.42     24.00
   35.5263     25.36     25.57    -20.98     24.00
   35.5365     25.10     25.56    -21.23     24.00
   35.5466     25.24     25.55    -21.08     24.00
   35.5568     25.65     25.54    -20.66     24.00
   35.5669     25.53     25.53    -20.77     24.00
   35.5771     24.59     25.52    -21.70     24.00
   35.5873     26.05     25.51    -20.23     24.00
   35.5974     25.75     25.50    -20.52     24.00
   35.6076     24.77     25.50    -21.50     24.00
   35.6178     25.21     25.49    -21.05     24.00
   35.6279     25.27     25.48    -20.98     24.00
   35.6381     24.82     25.47    -21.42     24.00
   35.6483     25.47     25.46    -20.76     24.00
   35.6584     25.49     25.45    -20.73     24.00
   35.6686     24.38     25.44    -21.83     24.00
   35.6788     25.17     25.44    -21.04     24.00
   35.6889     25.04     25.43    -21.16     24.00
   35.6991     24.91     25.42    -21.28     24.00
   35.7093     25.60     25.41    -20.58     24.00
   35.7194     25.40     25.41    -20.78     24.00
   35.7296     25.45     25.40    -20.72     24.00
   35.7397     25.54     25.39    -20.62     24.00
   35.7499     25.45     25.39    -20.71     24.00
   35.7601     25.29     25.38    -20.86     24.00
   35.7702     25.01     25.37    -21.13     24.00
   35.7804     25.16     25.37    -20.98     24.00
   35.7906     25.09     25.36    -21.04     24.00
   35.8007     25.24     25.35    -20.88     24.00
   35.8109     25.09     25.35    -21.03     24.00
   35.8211     25.28     25.34    -20.83     24.00
   35.8312     24.94     25.34    -21.17     24.00
   35.8414     25.34     25.33    -20.76     24.00
   35.8516     25.37     25.32    -20.72     24.00
   35.8617     24.97     25.32    -21.12     24.00
   35.8719     25.20     25.31    -20.88     24.00
   35.8820     24.59     25.31    -21.49     24.00
   35.8922     25.02     25.30    -21.05     24.00
   35.9024     25.60     25.30    -20.47     24.00
   35.9125     25.02     25.29    -21.04     24.00
   35.9227     25.41     25.29    -20.65     24.00
   35.9329     24.42     25.28    -21.63     24.00
   35.9430     25.29     25.28    -20.76     24.00
   35.9532     25.32     25.27    -20.72     24.00
   35.9634     25.01     25.27    -21.03     24.00
   35.9735     25.16     25.26    -20.87     24.00
   35.9837     25.78     25.26    -20.25     24.00
   35.9939     24.88     25.25    -21.14     24.00
