 => TITLE: 
 => Data file name: C:\Users\stefano\Nextcloud2\projects\programming\python\xrd-winplotr\folder\G307\G307--5-40-0.01-1000ms.xy
 => Instrm        :    1
 => Lambda(1&2)   :   1.54060  1.54060
 => Numb.of.points:      2944
 => Numb.of.peaks :         8
    2Theta     Yobs     Ycalc  Yobs-Ycal    Backg    Bragg     Posr  Intensity   FWHM    Eta
    6.1001     22.95     25.76    -23.58     25.00   18.5798      0.90     109.76  0.9012  0.0001
    6.1102     24.10     25.76    -22.43     25.00   20.3065      0.90      83.51  1.8081  0.0001
    6.1204     23.40     25.77    -23.14     25.00   22.3968      0.90      89.70  1.3384  0.0001
    6.1306     23.47     25.77    -23.07     25.00   28.4586      0.90      27.76  1.3835  0.0001
    6.1407     24.14     25.78    -22.41     25.00   29.9415      0.90      33.87  3.6804  0.0001
    6.1509     23.15     25.78    -23.40     25.00   33.4085      0.90      10.77  2.6251  0.0001
    6.1611     23.56     25.79    -23.00     25.00   17.5000      0.90     118.58  3.3033  0.0001
    6.1712     23.35     25.79    -23.21     25.00   20.0418      0.90     759.82 11.0039  0.0001
    6.1814     24.32     25.80    -22.25     25.00
    6.1915     23.98     25.80    -22.59     25.00
    6.2017     23.91     25.81    -22.67     25.00
    6.2119     23.66     25.81    -22.92     25.00
    6.2220     24.14     25.82    -22.45     25.00
    6.2322     23.69     25.82    -22.90     25.00
    6.2424     22.83     25.83    -23.77     25.00
    6.2525     22.77     25.83    -23.83     25.00
    6.2627     24.59     25.84    -22.02     25.00
    6.2729     23.29     25.85    -23.33     25.00
    6.2830     22.91     25.85    -23.71     25.00
    6.2932     23.85     25.86    -22.78     25.00
    6.3034     23.29     25.86    -23.34     25.00
    6.3135     23.91     25.87    -22.73     25.00
    6.3237     23.38     25.87    -23.26     25.00
    6.3338     22.57     25.88    -24.08     25.00
    6.3440     23.22     25.88    -23.43     25.00
    6.3542     23.12     25.89    -23.54     25.00
    6.3643     23.34     25.90    -23.33     25.00
    6.3745     22.91     25.90    -23.76     25.00
    6.3847     23.21     25.91    -23.47     25.00
    6.3948     23.62     25.91    -23.06     25.00
    6.4050     22.73     25.92    -23.96     25.00
    6.4152     23.36     25.92    -23.33     25.00
    6.4253     23.81     25.93    -22.89     25.00
    6.4355     23.11     25.94    -23.60     25.00
    6.4457     23.01     25.94    -23.70     25.00
    6.4558     23.82     25.95    -22.90     25.00
    6.4660     23.65     25.95    -23.07     25.00
    6.4762     23.46     25.96    -23.27     25.00
    6.4863     23.95     25.97    -22.79     25.00
    6.4965     23.23     25.97    -23.51     25.00
    6.5066     23.34     25.98    -23.41     25.00
    6.5168     23.77     25.98    -22.98     25.00
    6.5270     22.82     25.99    -23.94     25.00
    6.5371     23.98     26.00    -22.79     25.00
    6.5473     23.84     26.00    -22.93     25.00
    6.5575     23.08     26.01    -23.70     25.00
    6.5676     23.36     26.02    -23.43     25.00
    6.5778     23.56     26.02    -23.23     25.00
    6.5880     22.88     26.03    -23.92     25.00
    6.5981     22.91     26.04    -23.90     25.00
    6.6083     23.43     26.04    -23.38     25.00
    6.6185     24.28     26.05    -22.54     25.00
    6.6286     24.14     26.05    -22.68     25.00
    6.6388     23.79     26.06    -23.04     25.00
    6.6489     22.89     26.07    -23.95     25.00
    6.6591     23.15     26.07    -23.69     25.00
    6.6693     23.58     26.08    -23.27     25.00
    6.6794     23.94     26.09    -22.92     25.00
    6.6896     23.20     26.09    -23.66     25.00
    6.6998     23.52     26.10    -23.35     25.00
    6.7099     23.79     26.11    -23.09     25.00
    6.7201     23.58     26.12    -23.31     25.00
    6.7303     23.76     26.12    -23.13     25.00
    6.7404     23.66     26.13    -23.24     25.00
    6.7506     23.52     26.14    -23.39     25.00
    6.7608     23.51     26.14    -23.40     25.00
    6.7709     24.15     26.15    -22.77     25.00
    6.7811     23.87     26.16    -23.06     25.00
    6.7913     23.32     26.16    -23.61     25.00
    6.8014     24.26     26.17    -22.68     25.00
    6.8116     24.26     26.18    -22.69     25.00
    6.8217     23.29     26.19    -23.67     25.00
    6.8319     23.65     26.19    -23.31     25.00
    6.8421     23.65     26.20    -23.32     25.00
    6.8522     23.88     26.21    -23.10     25.00
    6.8624     24.22     26.22    -22.77     25.00
    6.8726     25.07     26.22    -21.92     25.00
    6.8827     23.89     26.23    -23.11     25.00
    6.8929     23.68     26.24    -23.33     25.00
    6.9031     23.55     26.25    -23.47     25.00
    6.9132     24.71     26.25    -22.31     25.00
    6.9234     23.87     26.26    -23.16     25.00
    6.9336     23.92     26.27    -23.12     25.00
    6.9437     24.67     26.28    -22.38     25.00
    6.9539     23.09     26.28    -23.96     25.00
    6.9640     24.85     26.29    -22.21     25.00
    6.9742     24.31     26.30    -22.76     25.00
    6.9844     23.59     26.31    -23.49     25.00
    6.9945     23.85     26.32    -23.24     25.00
    7.0047     24.54     26.32    -22.55     25.00
    7.0149     23.62     26.33    -23.48     25.00
    7.0250     23.75     26.34    -23.36     25.00
    7.0352     23.95     26.35    -23.17     25.00
    7.0454     24.15     26.36    -22.98     25.00
    7.0555     24.39     26.37    -22.75     25.00
    7.0657     23.85     26.37    -23.29     25.00
    7.0759     24.30     26.38    -22.85     25.00
    7.0860     23.91     26.39    -23.25     25.00
    7.0962     23.71     26.40    -23.46     25.00
    7.1064     24.75     26.41    -22.43     25.00
    7.1165     24.46     26.42    -22.73     25.00
    7.1267     23.88     26.42    -23.31     25.00
    7.1368     25.13     26.43    -22.07     25.00
    7.1470     24.25     26.44    -22.96     25.00
    7.1572     25.01     26.45    -22.21     25.00
    7.1673     24.60     26.46    -22.63     25.00
    7.1775     24.25     26.47    -22.99     25.00
    7.1877     24.46     26.48    -22.79     25.00
    7.1978     24.21     26.48    -23.04     25.00
    7.2080     25.01     26.49    -22.25     25.00
    7.2182     24.48     26.50    -22.79     25.00
    7.2283     24.31     26.51    -22.97     25.00
    7.2385     24.73     26.52    -22.56     25.00
    7.2487     25.23     26.53    -22.07     25.00
    7.2588     25.02     26.54    -22.29     25.00
    7.2690     23.92     26.55    -23.40     25.00
    7.2791     24.34     26.56    -22.99     25.00
    7.2893     25.06     26.57    -22.28     25.00
    7.2995     24.96     26.58    -22.39     25.00
    7.3096     25.01     26.59    -22.35     25.00
    7.3198     24.88     26.59    -22.48     25.00
    7.3300     25.08     26.60    -22.29     25.00
    7.3401     24.37     26.61    -23.01     25.00
    7.3503     25.32     26.62    -22.07     25.00
    7.3605     25.22     26.63    -22.18     25.00
    7.3706     24.52     26.64    -22.89     25.00
    7.3808     25.30     26.65    -22.12     25.00
    7.3910     24.76     26.66    -22.67     25.00
    7.4011     24.79     26.67    -22.65     25.00
    7.4113     25.68     26.68    -21.77     25.00
    7.4215     25.55     26.69    -21.91     25.00
    7.4316     25.49     26.70    -21.98     25.00
    7.4418     25.11     26.71    -22.37     25.00
    7.4519     24.95     26.72    -22.54     25.00
    7.4621     25.21     26.73    -22.29     25.00
    7.4723     25.42     26.74    -22.09     25.00
    7.4824     24.87     26.75    -22.65     25.00
    7.4926     25.28     26.76    -22.25     25.00
    7.5028     25.74     26.77    -21.80     25.00
    7.5129     25.20     26.78    -22.35     25.00
    7.5231     24.66     26.79    -22.90     25.00
    7.5333     24.97     26.80    -22.60     25.00
    7.5434     24.60     26.81    -22.98     25.00
    7.5536     25.00     26.83    -22.60     25.00
    7.5638     26.29     26.84    -21.32     25.00
    7.5739     25.12     26.85    -22.50     25.00
    7.5841     25.28     26.86    -22.35     25.00
    7.5942     26.01     26.87    -21.63     25.00
    7.6044     25.51     26.88    -22.14     25.00
    7.6146     25.77     26.89    -21.89     25.00
    7.6247     25.30     26.90    -22.37     25.00
    7.6349     25.32     26.91    -22.36     25.00
    7.6451     26.30     26.92    -21.39     25.00
    7.6552     26.04     26.93    -21.66     25.00
    7.6654     25.95     26.95    -21.77     25.00
    7.6756     25.77     26.96    -21.96     25.00
    7.6857     25.63     26.97    -22.11     25.00
    7.6959     26.20     26.98    -21.55     25.00
    7.7061     26.60     26.99    -21.16     25.00
    7.7162     25.72     27.00    -22.05     25.00
    7.7264     24.84     27.01    -22.94     25.00
    7.7365     25.35     27.02    -22.44     25.00
    7.7467     25.71     27.04    -22.10     25.00
    7.7569     25.80     27.05    -22.02     25.00
    7.7670     25.41     27.06    -22.42     25.00
    7.7772     25.51     27.07    -22.33     25.00
    7.7874     25.59     27.08    -22.26     25.00
    7.7975     25.70     27.10    -22.17     25.00
    7.8077     26.24     27.11    -21.64     25.00
    7.8179     25.89     27.12    -22.00     25.00
    7.8280     26.37     27.13    -21.53     25.00
    7.8382     25.85     27.14    -22.06     25.00
    7.8484     24.65     27.16    -23.28     25.00
    7.8585     26.13     27.17    -21.81     25.00
    7.8687     26.73     27.18    -21.22     25.00
    7.8789     25.62     27.19    -22.34     25.00
    7.8890     25.33     27.21    -22.65     25.00
    7.8992     27.06     27.22    -20.93     25.00
    7.9093     25.61     27.23    -22.39     25.00
    7.9195     26.77     27.24    -21.24     25.00
    7.9297     26.35     27.26    -21.68     25.00
    7.9398     25.68     27.27    -22.36     25.00
    7.9500     26.93     27.28    -21.12     25.00
    7.9602     26.62     27.29    -21.44     25.00
    7.9703     27.41     27.31    -20.67     25.00
    7.9805     26.81     27.32    -21.28     25.00
    7.9907     26.51     27.33    -21.59     25.00
    8.0008     26.39     27.35    -21.73     25.00
    8.0110     26.56     27.36    -21.57     25.00
    8.0212     27.21     27.37    -20.93     25.00
    8.0313     26.91     27.39    -21.25     25.00
    8.0415     27.37     27.40    -20.80     25.00
    8.0516     26.39     27.41    -21.79     25.00
    8.0618     26.13     27.43    -22.07     25.00
    8.0720     26.55     27.44    -21.66     25.00
    8.0821     26.59     27.45    -21.63     25.00
    8.0923     26.24     27.47    -22.00     25.00
    8.1025     27.00     27.48    -21.25     25.00
    8.1126     27.30     27.49    -20.96     25.00
    8.1228     26.94     27.51    -21.34     25.00
    8.1330     27.64     27.52    -20.65     25.00
    8.1431     27.38     27.54    -20.93     25.00
    8.1533     26.71     27.55    -21.61     25.00
    8.1635     26.91     27.56    -21.42     25.00
    8.1736     27.51     27.58    -20.84     25.00
    8.1838     27.26     27.59    -21.10     25.00
    8.1940     27.29     27.61    -21.09     25.00
    8.2041     27.20     27.62    -21.19     25.00
    8.2143     26.71     27.64    -21.70     25.00
    8.2244     28.02     27.65    -20.40     25.00
    8.2346     27.74     27.67    -20.70     25.00
    8.2448     27.01     27.68    -21.44     25.00
    8.2549     27.37     27.69    -21.09     25.00
    8.2651     27.83     27.71    -20.65     25.00
    8.2753     27.55     27.72    -20.94     25.00
    8.2854     26.65     27.74    -21.86     25.00
    8.2956     27.93     27.75    -20.59     25.00
    8.3058     26.72     27.77    -21.82     25.00
    8.3159     27.94     27.78    -20.61     25.00
    8.3261     26.90     27.80    -21.67     25.00
    8.3363     27.46     27.82    -21.13     25.00
    8.3464     27.30     27.83    -21.30     25.00
    8.3566     28.21     27.85    -20.41     25.00
    8.3667     26.90     27.86    -21.73     25.00
    8.3769     27.90     27.88    -20.75     25.00
    8.3871     28.20     27.89    -20.46     25.00
    8.3972     28.15     27.91    -20.53     25.00
    8.4074     27.84     27.92    -20.85     25.00
    8.4176     27.29     27.94    -21.42     25.00
    8.4277     27.47     27.96    -21.26     25.00
    8.4379     28.14     27.97    -20.60     25.00
    8.4481     27.33     27.99    -21.43     25.00
    8.4582     27.59     28.00    -21.18     25.00
    8.4684     28.27     28.02    -20.52     25.00
    8.4786     27.87     28.04    -20.94     25.00
    8.4887     27.37     28.05    -21.45     25.00
    8.4989     28.07     28.07    -20.77     25.00
    8.5091     28.37     28.09    -20.49     25.00
    8.5192     28.55     28.10    -20.32     25.00
    8.5294     28.65     28.12    -20.24     25.00
    8.5395     27.89     28.14    -21.02     25.00
    8.5497     27.52     28.15    -21.40     25.00
    8.5599     27.56     28.17    -21.38     25.00
    8.5700     28.44     28.19    -20.52     25.00
    8.5802     27.56     28.20    -21.41     25.00
    8.5904     28.56     28.22    -20.43     25.00
    8.6005     27.99     28.24    -21.02     25.00
    8.6107     27.81     28.26    -21.22     25.00
    8.6209     28.80     28.27    -20.24     25.00
    8.6310     28.29     28.29    -20.77     25.00
    8.6412     27.44     28.31    -21.64     25.00
    8.6514     28.85     28.33    -20.25     25.00
    8.6615     27.85     28.34    -21.26     25.00
    8.6717     28.47     28.36    -20.66     25.00
    8.6818     28.60     28.38    -20.55     25.00
    8.6920     28.65     28.40    -20.52     25.00
    8.7022     28.04     28.42    -21.15     25.00
    8.7123     29.10     28.43    -20.10     25.00
    8.7225     28.87     28.45    -20.35     25.00
    8.7327     27.98     28.47    -21.26     25.00
    8.7428     28.61     28.49    -20.65     25.00
    8.7530     29.41     28.51    -19.87     25.00
    8.7632     28.99     28.52    -20.30     25.00
    8.7733     29.30     28.54    -20.01     25.00
    8.7835     28.74     28.56    -20.59     25.00
    8.7937     29.45     28.58    -19.90     25.00
    8.8038     29.03     28.60    -20.34     25.00
    8.8140     29.10     28.62    -20.29     25.00
    8.8242     29.45     28.64    -19.96     25.00
    8.8343     28.98     28.66    -20.45     25.00
    8.8445     28.74     28.68    -20.71     25.00
    8.8546     28.47     28.69    -20.99     25.00
    8.8648     29.57     28.71    -19.91     25.00
    8.8750     29.39     28.73    -20.11     25.00
    8.8851     27.98     28.75    -21.54     25.00
    8.8953     29.46     28.77    -20.08     25.00
    8.9055     28.88     28.79    -20.68     25.00
    8.9156     29.28     28.81    -20.30     25.00
    8.9258     28.96     28.83    -20.64     25.00
    8.9360     29.35     28.85    -20.27     25.00
    8.9461     30.04     28.87    -19.60     25.00
    8.9563     29.51     28.89    -20.15     25.00
    8.9665     28.52     28.91    -21.16     25.00
    8.9766     29.70     28.93    -20.00     25.00
    8.9868     29.57     28.95    -20.15     25.00
    8.9969     29.09     28.97    -20.65     25.00
    9.0071     29.27     28.99    -20.49     25.00
    9.0173     29.37     29.01    -20.41     25.00
    9.0274     29.77     29.03    -20.03     25.00
    9.0376     29.64     29.05    -20.18     25.00
    9.0478     30.02     29.08    -19.83     25.00
    9.0579     29.64     29.10    -20.23     25.00
    9.0681     29.50     29.12    -20.39     25.00
    9.0783     29.34     29.14    -20.57     25.00
    9.0884     30.27     29.16    -19.66     25.00
    9.0986     30.35     29.18    -19.60     25.00
    9.1088     29.90     29.20    -20.07     25.00
    9.1189     29.55     29.22    -20.44     25.00
    9.1291     29.02     29.24    -20.99     25.00
    9.1393     29.43     29.27    -20.61     25.00
    9.1494     29.59     29.29    -20.47     25.00
    9.1596     29.07     29.31    -21.01     25.00
    9.1697     29.92     29.33    -20.18     25.00
    9.1799     29.37     29.35    -20.75     25.00
    9.1901     30.14     29.38    -20.01     25.00
    9.2002     29.87     29.40    -20.30     25.00
    9.2104     30.22     29.42    -19.97     25.00
    9.2206     29.70     29.44    -20.51     25.00
    9.2307     30.62     29.46    -19.61     25.00
    9.2409     30.46     29.49    -19.80     25.00
    9.2511     30.13     29.51    -20.15     25.00
    9.2612     29.72     29.53    -20.58     25.00
    9.2714     30.71     29.56    -19.62     25.00
    9.2816     30.29     29.58    -20.06     25.00
    9.2917     30.07     29.60    -20.30     25.00
    9.3019     30.34     29.62    -20.05     25.00
    9.3120     30.82     29.65    -19.60     25.00
    9.3222     31.30     29.67    -19.14     25.00
    9.3324     30.84     29.69    -19.62     25.00
    9.3425     30.04     29.72    -20.45     25.00
    9.3527     30.51     29.74    -20.00     25.00
    9.3629     31.54     29.76    -18.99     25.00
    9.3730     29.74     29.79    -20.82     25.00
    9.3832     31.48     29.81    -19.10     25.00
    9.3934     31.30     29.84    -19.31     25.00
    9.4035     30.55     29.86    -20.08     25.00
    9.4137     31.26     29.88    -19.39     25.00
    9.4239     29.87     29.91    -20.81     25.00
    9.4340     30.59     29.93    -20.11     25.00
    9.4442     31.30     29.96    -19.43     25.00
    9.4544     30.24     29.98    -20.51     25.00
    9.4645     30.60     30.01    -20.18     25.00
    9.4747     32.04     30.03    -18.76     25.00
    9.4848     31.76     30.06    -19.07     25.00
    9.4950     30.43     30.08    -20.42     25.00
    9.5052     30.85     30.11    -20.03     25.00
    9.5153     31.55     30.13    -19.35     25.00
    9.5255     30.09     30.16    -20.84     25.00
    9.5357     30.71     30.18    -20.24     25.00
    9.5458     31.76     30.21    -19.22     25.00
    9.5560     30.71     30.23    -20.29     25.00
    9.5662     31.11     30.26    -19.92     25.00
    9.5763     31.43     30.28    -19.62     25.00
    9.5865     31.01     30.31    -20.07     25.00
    9.5967     30.95     30.34    -20.16     25.00
    9.6068     30.74     30.36    -20.39     25.00
    9.6170     31.88     30.39    -19.28     25.00
    9.6271     30.52     30.41    -20.66     25.00
    9.6373     31.30     30.44    -19.91     25.00
    9.6475     31.13     30.47    -20.11     25.00
    9.6576     31.36     30.49    -19.90     25.00
    9.6678     32.20     30.52    -19.09     25.00
    9.6780     30.99     30.55    -20.33     25.00
    9.6881     31.46     30.57    -19.88     25.00
    9.6983     32.00     30.60    -19.37     25.00
    9.7085     30.95     30.63    -20.45     25.00
    9.7186     31.73     30.65    -19.69     25.00
    9.7288     31.43     30.68    -20.02     25.00
    9.7390     31.76     30.71    -19.72     25.00
    9.7491     31.65     30.74    -19.86     25.00
    9.7593     31.54     30.76    -19.99     25.00
    9.7694     31.10     30.79    -20.46     25.00
    9.7796     31.53     30.82    -20.06     25.00
    9.7898     31.62     30.85    -20.00     25.00
    9.7999     30.55     30.87    -21.09     25.00
    9.8101     31.73     30.90    -19.94     25.00
    9.8203     32.07     30.93    -19.63     25.00
    9.8304     31.15     30.96    -20.58     25.00
    9.8406     32.41     30.99    -19.35     25.00
    9.8508     31.89     31.02    -19.90     25.00
    9.8609     31.76     31.04    -20.05     25.00
    9.8711     31.61     31.07    -20.23     25.00
    9.8813     32.06     31.10    -19.81     25.00
    9.8914     32.20     31.13    -19.70     25.00
    9.9016     32.45     31.16    -19.48     25.00
    9.9118     31.68     31.19    -20.28     25.00
    9.9219     31.96     31.22    -20.03     25.00
    9.9321     30.96     31.25    -21.06     25.00
    9.9422     31.34     31.28    -20.71     25.00
    9.9524     32.23     31.31    -19.85     25.00
    9.9626     31.90     31.34    -20.21     25.00
    9.9727     31.88     31.37    -20.26     25.00
    9.9829     32.18     31.40    -19.99     25.00
    9.9931     32.61     31.43    -19.59     25.00
   10.0032     31.91     31.46    -20.32     25.00
   10.0134     31.69     31.49    -20.57     25.00
   10.0236     32.59     31.52    -19.70     25.00
   10.0337     32.97     31.55    -19.35     25.00
   10.0439     32.52     31.58    -19.83     25.00
   10.0541     32.76     31.61    -19.62     25.00
   10.0642     31.89     31.64    -20.52     25.00
   10.0744     31.88     31.67    -20.56     25.00
   10.0845     32.81     31.70    -19.66     25.00
   10.0947     32.09     31.73    -20.41     25.00
   10.1049     32.95     31.76    -19.58     25.00
   10.1150     32.72     31.79    -19.84     25.00
   10.1252     32.71     31.83    -19.89     25.00
   10.1354     32.96     31.86    -19.67     25.00
   10.1455     32.91     31.89    -19.75     25.00
   10.1557     32.33     31.92    -20.36     25.00
   10.1659     32.89     31.95    -19.83     25.00
   10.1760     32.77     31.98    -19.98     25.00
   10.1862     32.65     32.02    -20.14     25.00
   10.1964     31.88     32.05    -20.94     25.00
   10.2065     32.67     32.08    -20.18     25.00
   10.2167     32.20     32.11    -20.68     25.00
   10.2269     33.11     32.15    -19.81     25.00
   10.2370     33.74     32.18    -19.21     25.00
   10.2472     32.35     32.21    -20.63     25.00
   10.2573     32.91     32.24    -20.10     25.00
   10.2675     32.95     32.28    -20.10     25.00
   10.2777     32.51     32.31    -20.57     25.00
   10.2878     33.38     32.34    -19.73     25.00
   10.2980     33.37     32.38    -19.78     25.00
   10.3082     33.53     32.41    -19.65     25.00
   10.3183     33.20     32.44    -20.02     25.00
   10.3285     33.59     32.48    -19.66     25.00
   10.3387     33.73     32.51    -19.55     25.00
   10.3488     32.97     32.55    -20.35     25.00
   10.3590     33.31     32.58    -20.04     25.00
   10.3692     33.02     32.62    -20.37     25.00
   10.3793     33.40     32.65    -20.02     25.00
   10.3895     34.11     32.68    -19.34     25.00
   10.3996     33.10     32.72    -20.39     25.00
   10.4098     32.91     32.75    -20.61     25.00
   10.4200     33.65     32.79    -19.91     25.00
   10.4301     33.51     32.82    -20.08     25.00
   10.4403     32.46     32.86    -21.17     25.00
   10.4505     34.76     32.89    -18.90     25.00
   10.4606     33.94     32.93    -19.76     25.00
   10.4708     32.49     32.96    -21.24     25.00
   10.4810     33.68     33.00    -20.09     25.00
   10.4911     34.73     33.03    -19.07     25.00
   10.5013     33.08     33.07    -20.76     25.00
   10.5115     33.50     33.11    -20.38     25.00
   10.5216     33.55     33.14    -20.36     25.00
   10.5318     34.04     33.18    -19.91     25.00
   10.5420     33.76     33.22    -20.23     25.00
   10.5521     33.55     33.25    -20.47     25.00
   10.5623     34.30     33.29    -19.76     25.00
   10.5724     33.35     33.32    -20.74     25.00
   10.5826     34.27     33.36    -19.86     25.00
   10.5928     34.06     33.40    -20.11     25.00
   10.6029     33.86     33.44    -20.35     25.00
   10.6131     34.05     33.47    -20.19     25.00
   10.6233     32.95     33.51    -21.33     25.00
   10.6334     34.35     33.55    -19.97     25.00
   10.6436     34.22     33.58    -20.13     25.00
   10.6538     34.43     33.62    -19.96     25.00
   10.6639     34.23     33.66    -20.20     25.00
   10.6741     33.60     33.70    -20.87     25.00
   10.6843     34.53     33.74    -19.98     25.00
   10.6944     34.29     33.77    -20.25     25.00
   10.7046     34.45     33.81    -20.13     25.00
   10.7147     35.38     33.85    -19.24     25.00
   10.7249     34.51     33.89    -20.15     25.00
   10.7351     34.04     33.93    -20.66     25.00
   10.7452     34.08     33.97    -20.66     25.00
   10.7554     34.82     34.01    -19.96     25.00
   10.7656     34.48     34.04    -20.33     25.00
   10.7757     34.15     34.08    -20.70     25.00
   10.7859     35.45     34.12    -19.44     25.00
   10.7961     35.17     34.16    -19.76     25.00
   10.8062     34.96     34.20    -20.01     25.00
   10.8164     34.64     34.24    -20.37     25.00
   10.8266     34.88     34.28    -20.17     25.00
   10.8367     34.87     34.32    -20.22     25.00
   10.8469     35.12     34.36    -20.01     25.00
   10.8571     35.49     34.40    -19.68     25.00
   10.8672     34.97     34.44    -20.24     25.00
   10.8774     34.51     34.48    -20.74     25.00
   10.8875     34.27     34.52    -21.02     25.00
   10.8977     35.23     34.56    -20.10     25.00
   10.9079     36.39     34.60    -18.98     25.00
   10.9180     35.51     34.64    -19.90     25.00
   10.9282     35.13     34.69    -20.33     25.00
   10.9384     35.33     34.73    -20.17     25.00
   10.9485     35.85     34.77    -19.69     25.00
   10.9587     35.07     34.81    -20.51     25.00
   10.9689     35.15     34.85    -20.47     25.00
   10.9790     34.70     34.89    -20.96     25.00
   10.9892     34.91     34.93    -20.79     25.00
   10.9994     35.14     34.98    -20.61     25.00
   11.0095     35.49     35.02    -20.30     25.00
   11.0197     35.49     35.06    -20.34     25.00
   11.0298     35.79     35.10    -20.08     25.00
   11.0400     35.39     35.15    -20.53     25.00
   11.0502     35.49     35.19    -20.47     25.00
   11.0603     35.14     35.23    -20.86     25.00
   11.0705     35.82     35.27    -20.22     25.00
   11.0807     36.02     35.32    -20.07     25.00
   11.0908     35.47     35.36    -20.66     25.00
   11.1010     36.87     35.40    -19.30     25.00
   11.1112     36.27     35.45    -19.95     25.00
   11.1213     35.91     35.49    -20.35     25.00
   11.1315     35.91     35.53    -20.39     25.00
   11.1417     35.41     35.58    -20.94     25.00
   11.1518     36.87     35.62    -19.52     25.00
   11.1620     35.80     35.67    -20.64     25.00
   11.1722     36.09     35.71    -20.39     25.00
   11.1823     35.41     35.75    -21.11     25.00
   11.1925     35.91     35.80    -20.66     25.00
   11.2026     36.23     35.84    -20.38     25.00
   11.2128     36.45     35.89    -20.21     25.00
   11.2230     37.41     35.93    -19.29     25.00
   11.2331     36.34     35.98    -20.41     25.00
   11.2433     36.52     36.02    -20.27     25.00
   11.2535     36.46     36.07    -20.38     25.00
   11.2636     36.14     36.11    -20.74     25.00
   11.2738     36.45     36.16    -20.48     25.00
   11.2840     37.48     36.20    -19.49     25.00
   11.2941     36.96     36.25    -20.06     25.00
   11.3043     36.79     36.30    -20.28     25.00
   11.3145     36.15     36.34    -20.96     25.00
   11.3246     36.76     36.39    -20.40     25.00
   11.3348     37.55     36.43    -19.65     25.00
   11.3449     37.10     36.48    -20.15     25.00
   11.3551     36.84     36.53    -20.46     25.00
   11.3653     37.20     36.57    -20.14     25.00
   11.3754     36.23     36.62    -21.16     25.00
   11.3856     36.22     36.67    -21.22     25.00
   11.3958     37.18     36.72    -20.31     25.00
   11.4059     36.35     36.76    -21.18     25.00
   11.4161     36.77     36.81    -20.81     25.00
   11.4263     36.88     36.86    -20.75     25.00
   11.4364     36.55     36.91    -21.13     25.00
   11.4466     36.06     36.95    -21.66     25.00
   11.4568     36.83     37.00    -20.94     25.00
   11.4669     36.79     37.05    -21.03     25.00
   11.4771     37.18     37.10    -20.69     25.00
   11.4873     37.57     37.15    -20.35     25.00
   11.4974     37.40     37.19    -20.56     25.00
   11.5076     37.95     37.24    -20.06     25.00
   11.5177     37.13     37.29    -20.93     25.00
   11.5279     38.10     37.34    -20.01     25.00
   11.5381     38.22     37.39    -19.94     25.00
   11.5482     37.39     37.44    -20.82     25.00
   11.5584     37.54     37.49    -20.72     25.00
   11.5686     37.23     37.54    -21.08     25.00
   11.5787     37.11     37.59    -21.25     25.00
   11.5889     37.93     37.64    -20.48     25.00
   11.5991     37.79     37.69    -20.67     25.00
   11.6092     37.06     37.74    -21.45     25.00
   11.6194     38.33     37.79    -20.23     25.00
   11.6296     38.07     37.84    -20.54     25.00
   11.6397     37.02     37.89    -21.64     25.00
   11.6499     37.96     37.94    -20.75     25.00
   11.6600     37.89     37.99    -20.87     25.00
   11.6702     38.69     38.04    -20.12     25.00
   11.6804     37.81     38.09    -21.05     25.00
   11.6905     38.60     38.14    -20.31     25.00
   11.7007     37.82     38.19    -21.14     25.00
   11.7109     38.24     38.25    -20.78     25.00
   11.7210     39.27     38.30    -19.80     25.00
   11.7312     38.14     38.35    -20.98     25.00
   11.7414     38.07     38.40    -21.10     25.00
   11.7515     38.38     38.45    -20.84     25.00
   11.7617     39.23     38.51    -20.05     25.00
   11.7719     37.57     38.56    -21.76     25.00
   11.7820     39.55     38.61    -19.83     25.00
   11.7922     39.37     38.66    -20.06     25.00
   11.8023     38.73     38.72    -20.76     25.00
   11.8125     38.88     38.77    -20.66     25.00
   11.8227     37.98     38.82    -21.61     25.00
   11.8328     39.06     38.87    -20.58     25.00
   11.8430     39.59     38.93    -20.11     25.00
   11.8532     39.04     38.98    -20.71     25.00
   11.8633     39.46     39.03    -20.34     25.00
   11.8735     39.13     39.09    -20.73     25.00
   11.8837     38.73     39.14    -21.18     25.00
   11.8938     39.14     39.20    -20.83     25.00
   11.9040     39.38     39.25    -20.64     25.00
   11.9142     39.90     39.31    -20.18     25.00
   11.9243     39.48     39.36    -20.65     25.00
   11.9345     38.76     39.41    -21.42     25.00
   11.9447     39.16     39.47    -21.08     25.00
   11.9548     40.40     39.52    -19.89     25.00
   11.9650     40.08     39.58    -20.27     25.00
   11.9751     40.02     39.63    -20.38     25.00
   11.9853     40.12     39.69    -20.34     25.00
   11.9955     39.66     39.75    -20.86     25.00
   12.0056     39.67     39.80    -20.90     25.00
   12.0158     38.66     39.86    -21.97     25.00
   12.0260     39.20     39.91    -21.48     25.00
   12.0361     40.04     39.97    -20.70     25.00
   12.0463     39.22     40.03    -21.58     25.00
   12.0565     39.54     40.08    -21.31     25.00
   12.0666     39.21     40.14    -21.70     25.00
   12.0768     40.12     40.20    -20.85     25.00
   12.0870     40.39     40.25    -20.63     25.00
   12.0971     40.22     40.31    -20.86     25.00
   12.1073     40.57     40.37    -20.57     25.00
   12.1174     41.21     40.42    -19.98     25.00
   12.1276     40.68     40.48    -20.57     25.00
   12.1378     40.97     40.54    -20.34     25.00
   12.1479     40.01     40.60    -21.36     25.00
   12.1581     40.10     40.65    -21.32     25.00
   12.1683     40.99     40.71    -20.49     25.00
   12.1784     41.10     40.77    -20.44     25.00
   12.1886     40.92     40.83    -20.68     25.00
   12.1988     41.27     40.89    -20.39     25.00
   12.2089     41.36     40.95    -20.36     25.00
   12.2191     40.29     41.01    -21.49     25.00
   12.2293     42.07     41.06    -19.76     25.00
   12.2394     41.22     41.12    -20.67     25.00
   12.2496     42.28     41.18    -19.67     25.00
   12.2598     41.86     41.24    -20.15     25.00
   12.2699     41.28     41.30    -20.79     25.00
   12.2801     40.49     41.36    -21.64     25.00
   12.2902     41.73     41.42    -20.46     25.00
   12.3004     41.10     41.48    -21.15     25.00
   12.3106     41.43     41.54    -20.88     25.00
   12.3207     41.62     41.60    -20.75     25.00
   12.3309     41.82     41.66    -20.61     25.00
   12.3411     42.02     41.72    -20.47     25.00
   12.3512     42.85     41.78    -19.70     25.00
   12.3614     42.15     41.85    -20.47     25.00
   12.3716     41.89     41.91    -20.79     25.00
   12.3817     42.54     41.97    -20.20     25.00
   12.3919     42.93     42.03    -19.87     25.00
   12.4021     42.46     42.09    -20.40     25.00
   12.4122     41.62     42.15    -21.30     25.00
   12.4224     42.61     42.22    -20.38     25.00
   12.4325     42.45     42.28    -20.60     25.00
   12.4427     42.98     42.34    -20.13     25.00
   12.4529     42.68     42.40    -20.49     25.00
   12.4630     42.87     42.47    -20.37     25.00
   12.4732     41.72     42.53    -21.58     25.00
   12.4834     41.79     42.59    -21.57     25.00
   12.4935     42.16     42.65    -21.26     25.00
   12.5037     42.95     42.72    -20.54     25.00
   12.5139     44.56     42.78    -18.99     25.00
   12.5240     42.88     42.85    -20.74     25.00
   12.5342     42.87     42.91    -20.81     25.00
   12.5444     42.61     42.97    -21.13     25.00
   12.5545     42.79     43.04    -21.02     25.00
   12.5647     42.90     43.10    -20.97     25.00
   12.5749     42.90     43.17    -21.04     25.00
   12.5850     44.15     43.23    -19.85     25.00
   12.5952     44.26     43.30    -19.81     25.00
   12.6053     44.04     43.36    -20.09     25.00
   12.6155     43.68     43.43    -20.52     25.00
   12.6257     43.62     43.49    -20.64     25.00
   12.6358     43.48     43.56    -20.85     25.00
   12.6460     42.03     43.62    -22.36     25.00
   12.6562     44.15     43.69    -20.31     25.00
   12.6663     43.99     43.76    -20.54     25.00
   12.6765     43.01     43.82    -21.58     25.00
   12.6867     43.35     43.89    -21.31     25.00
   12.6968     43.84     43.96    -20.89     25.00
   12.7070     43.48     44.02    -21.31     25.00
   12.7172     44.06     44.09    -20.80     25.00
   12.7273     43.48     44.16    -21.45     25.00
   12.7375     43.85     44.23    -21.15     25.00
   12.7476     43.64     44.29    -21.42     25.00
   12.7578     44.54     44.36    -20.59     25.00
   12.7680     44.80     44.43    -20.40     25.00
   12.7781     44.70     44.50    -20.57     25.00
   12.7883     44.60     44.57    -20.74     25.00
   12.7985     44.49     44.63    -20.91     25.00
   12.8086     45.35     44.70    -20.12     25.00
   12.8188     45.27     44.77    -20.27     25.00
   12.8290     44.82     44.84    -20.79     25.00
   12.8391     44.99     44.91    -20.69     25.00
   12.8493     45.68     44.98    -20.07     25.00
   12.8595     45.50     45.05    -20.32     25.00
   12.8696     44.86     45.12    -21.03     25.00
   12.8798     45.68     45.19    -20.28     25.00
   12.8900     45.35     45.26    -20.68     25.00
   12.9001     45.98     45.33    -20.12     25.00
   12.9103     45.49     45.40    -20.68     25.00
   12.9204     45.81     45.47    -20.43     25.00
   12.9306     45.01     45.55    -21.31     25.00
   12.9408     45.45     45.62    -20.94     25.00
   12.9509     46.01     45.69    -20.45     25.00
   12.9611     46.71     45.76    -19.82     25.00
   12.9713     46.35     45.83    -20.25     25.00
   12.9814     46.55     45.90    -20.12     25.00
   12.9916     47.05     45.98    -19.70     25.00
   13.0018     46.79     46.05    -20.03     25.00
   13.0119     46.93     46.12    -19.96     25.00
   13.0221     46.95     46.20    -20.02     25.00
   13.0323     46.80     46.27    -20.24     25.00
   13.0424     47.51     46.34    -19.60     25.00
   13.0526     46.37     46.42    -20.82     25.00
   13.0627     47.43     46.49    -19.83     25.00
   13.0729     46.26     46.57    -21.08     25.00
   13.0831     47.50     46.64    -19.91     25.00
   13.0932     46.93     46.72    -20.56     25.00
   13.1034     47.48     46.79    -20.08     25.00
   13.1136     48.48     46.87    -19.16     25.00
   13.1237     46.96     46.94    -20.75     25.00
   13.1339     47.36     47.02    -20.43     25.00
   13.1441     47.69     47.09    -20.17     25.00
   13.1542     46.47     47.17    -21.47     25.00
   13.1644     46.80     47.25    -21.22     25.00
   13.1746     46.71     47.32    -21.38     25.00
   13.1847     48.69     47.40    -19.48     25.00
   13.1949     48.58     47.48    -19.67     25.00
   13.2051     49.39     47.56    -18.94     25.00
   13.2152     47.62     47.63    -20.78     25.00
   13.2254     48.07     47.71    -20.41     25.00
   13.2355     49.32     47.79    -19.24     25.00
   13.2457     48.37     47.87    -20.27     25.00
   13.2559     48.96     47.95    -19.76     25.00
   13.2660     48.39     48.03    -20.41     25.00
   13.2762     48.45     48.11    -20.43     25.00
   13.2864     48.03     48.19    -20.93     25.00
   13.2965     49.54     48.26    -19.49     25.00
   13.3067     49.29     48.35    -19.83     25.00
   13.3169     48.61     48.43    -20.59     25.00
   13.3270     48.96     48.51    -20.32     25.00
   13.3372     49.35     48.59    -20.01     25.00
   13.3474     48.88     48.67    -20.56     25.00
   13.3575     49.74     48.75    -19.78     25.00
   13.3677     49.35     48.83    -20.25     25.00
   13.3778     49.15     48.91    -20.53     25.00
   13.3880     49.95     49.00    -19.82     25.00
   13.3982     50.12     49.08    -19.73     25.00
   13.4083     49.18     49.16    -20.75     25.00
   13.4185     49.35     49.25    -20.67     25.00
   13.4287     51.28     49.33    -18.82     25.00
   13.4388     50.10     49.41    -20.08     25.00
   13.4490     50.68     49.50    -19.59     25.00
   13.4592     49.88     49.58    -20.47     25.00
   13.4693     49.67     49.67    -20.77     25.00
   13.4795     50.86     49.75    -19.66     25.00
   13.4897     50.95     49.84    -19.66     25.00
   13.4998     51.25     49.92    -19.44     25.00
   13.5100     49.87     50.01    -20.91     25.00
   13.5201     51.18     50.10    -19.69     25.00
   13.5303     50.74     50.18    -20.21     25.00
   13.5405     50.08     50.27    -20.96     25.00
   13.5506     50.79     50.36    -20.34     25.00
   13.5608     52.12     50.45    -19.10     25.00
   13.5710     50.93     50.54    -20.38     25.00
   13.5811     51.04     50.62    -20.35     25.00
   13.5913     51.13     50.71    -20.35     25.00
   13.6015     50.08     50.80    -21.49     25.00
   13.6116     51.37     50.89    -20.29     25.00
   13.6218     52.96     50.98    -18.79     25.00
   13.6320     52.01     51.07    -19.83     25.00
   13.6421     52.35     51.16    -19.58     25.00
   13.6523     51.57     51.25    -20.45     25.00
   13.6625     52.35     51.35    -19.77     25.00
   13.6726     53.45     51.44    -18.76     25.00
   13.6828     52.34     51.53    -19.96     25.00
   13.6929     51.82     51.62    -20.57     25.00
   13.7031     52.76     51.72    -19.73     25.00
   13.7133     52.86     51.81    -19.72     25.00
   13.7234     53.36     51.90    -19.31     25.00
   13.7336     53.47     52.00    -19.30     25.00
   13.7438     52.51     52.09    -20.35     25.00
   13.7539     54.04     52.19    -18.92     25.00
   13.7641     55.01     52.28    -18.04     25.00
   13.7743     52.81     52.38    -20.34     25.00
   13.7844     52.91     52.47    -20.33     25.00
   13.7946     53.91     52.57    -19.43     25.00
   13.8048     52.82     52.67    -20.62     25.00
   13.8149     53.37     52.77    -20.17     25.00
   13.8251     55.60     52.86    -18.03     25.00
   13.8352     54.43     52.96    -19.30     25.00
   13.8454     54.11     53.06    -19.72     25.00
   13.8556     54.15     53.16    -19.78     25.00
   13.8657     54.56     53.26    -19.47     25.00
   13.8759     54.96     53.36    -19.17     25.00
   13.8861     55.30     53.46    -18.93     25.00
   13.8962     54.35     53.56    -19.98     25.00
   13.9064     54.42     53.66    -20.01     25.00
   13.9166     54.88     53.77    -19.66     25.00
   13.9267     54.55     53.87    -20.09     25.00
   13.9369     55.68     53.97    -19.06     25.00
   13.9471     54.99     54.07    -19.85     25.00
   13.9572     55.30     54.18    -19.65     25.00
   13.9674     55.76     54.28    -19.29     25.00
   13.9776     55.16     54.39    -20.00     25.00
   13.9877     55.89     54.49    -19.37     25.00
   13.9979     54.79     54.60    -20.58     25.00
   14.0080     56.56     54.70    -18.91     25.00
   14.0182     55.21     54.81    -20.37     25.00
   14.0284     55.30     54.92    -20.39     25.00
   14.0385     55.77     55.03    -20.03     25.00
   14.0487     56.87     55.14    -19.04     25.00
   14.0589     55.54     55.24    -20.47     25.00
   14.0690     57.27     55.35    -18.85     25.00
   14.0792     56.93     55.46    -19.30     25.00
   14.0894     56.48     55.57    -19.86     25.00
   14.0995     56.89     55.69    -19.57     25.00
   14.1097     57.61     55.80    -18.96     25.00
   14.1199     55.80     55.91    -20.88     25.00
   14.1300     57.39     56.02    -19.40     25.00
   14.1402     57.79     56.14    -19.12     25.00
   14.1503     57.81     56.25    -19.21     25.00
   14.1605     58.53     56.36    -18.60     25.00
   14.1707     57.84     56.48    -19.41     25.00
   14.1808     57.48     56.59    -19.88     25.00
   14.1910     57.51     56.71    -19.97     25.00
   14.2012     58.20     56.83    -19.40     25.00
   14.2113     57.05     56.94    -20.66     25.00
   14.2215     58.52     57.06    -19.31     25.00
   14.2317     57.93     57.18    -20.02     25.00
   14.2418     59.40     57.30    -18.67     25.00
   14.2520     58.21     57.42    -19.98     25.00
   14.2622     60.29     57.54    -18.02     25.00
   14.2723     58.88     57.66    -19.55     25.00
   14.2825     58.42     57.78    -20.13     25.00
   14.2927     58.00     57.90    -20.67     25.00
   14.3028     59.86     58.03    -18.94     25.00
   14.3130     59.66     58.15    -19.26     25.00
   14.3231     60.27     58.27    -18.77     25.00
   14.3333     59.57     58.40    -19.60     25.00
   14.3435     60.87     58.52    -18.42     25.00
   14.3536     59.90     58.65    -19.52     25.00
   14.3638     59.89     58.77    -19.65     25.00
   14.3740     60.57     58.90    -19.10     25.00
   14.3841     61.12     59.03    -18.68     25.00
   14.3943     60.74     59.16    -19.19     25.00
   14.4045     61.35     59.29    -18.71     25.00
   14.4146     60.13     59.42    -20.06     25.00
   14.4248     61.54     59.55    -18.78     25.00
   14.4350     61.37     59.68    -19.08     25.00
   14.4451     61.70     59.81    -18.88     25.00
   14.4553     61.55     59.94    -19.16     25.00
   14.4654     62.91     60.08    -17.94     25.00
   14.4756     60.56     60.21    -20.42     25.00
   14.4858     60.40     60.35    -20.72     25.00
   14.4959     61.83     60.48    -19.42     25.00
   14.5061     62.15     60.62    -19.24     25.00
   14.5163     61.39     60.75    -20.13     25.00
   14.5264     62.81     60.89    -18.85     25.00
   14.5366     61.97     61.03    -19.83     25.00
   14.5468     62.40     61.17    -19.54     25.00
   14.5569     62.29     61.31    -19.79     25.00
   14.5671     63.19     61.45    -19.03     25.00
   14.5773     62.74     61.59    -19.62     25.00
   14.5874     63.30     61.73    -19.20     25.00
   14.5976     63.09     61.87    -19.55     25.00
   14.6078     63.30     62.02    -19.49     25.00
   14.6179     64.65     62.16    -18.28     25.00
   14.6281     64.29     62.30    -18.78     25.00
   14.6382     63.91     62.45    -19.31     25.00
   14.6484     63.98     62.60    -19.39     25.00
   14.6586     64.52     62.74    -18.99     25.00
   14.6687     63.96     62.89    -19.70     25.00
   14.6789     64.59     63.04    -19.22     25.00
   14.6891     64.16     63.19    -19.80     25.00
   14.6992     64.24     63.34    -19.87     25.00
   14.7094     64.46     63.49    -19.80     25.00
   14.7196     64.41     63.64    -20.00     25.00
   14.7297     64.71     63.79    -19.85     25.00
   14.7399     67.00     63.95    -17.72     25.00
   14.7501     64.90     64.10    -19.97     25.00
   14.7602     65.27     64.25    -19.75     25.00
   14.7704     65.37     64.41    -19.81     25.00
   14.7805     65.75     64.57    -19.59     25.00
   14.7907     66.17     64.72    -19.32     25.00
   14.8009     66.87     64.88    -18.78     25.00
   14.8110     65.87     65.04    -19.94     25.00
   14.8212     66.18     65.20    -19.79     25.00
   14.8314     67.84     65.36    -18.29     25.00
   14.8415     66.95     65.52    -19.34     25.00
   14.8517     67.52     65.68    -18.93     25.00
   14.8619     66.67     65.85    -19.95     25.00
   14.8720     67.65     66.01    -19.13     25.00
   14.8822     66.99     66.17    -19.95     25.00
   14.8924     67.59     66.34    -19.52     25.00
   14.9025     66.76     66.50    -20.51     25.00
   14.9127     66.50     66.67    -20.94     25.00
   14.9229     68.29     66.84    -19.32     25.00
   14.9330     67.97     67.01    -19.81     25.00
   14.9432     68.01     67.17    -19.93     25.00
   14.9533     67.99     67.34    -20.12     25.00
   14.9635     67.60     67.51    -20.68     25.00
   14.9737     69.51     67.69    -18.95     25.00
   14.9838     69.52     67.86    -19.11     25.00
   14.9940     67.96     68.03    -20.84     25.00
   15.0042     68.70     68.21    -20.28     25.00
   15.0143     68.37     68.38    -20.78     25.00
   15.0245     69.52     68.56    -19.81     25.00
   15.0347     69.51     68.73    -19.99     25.00
   15.0448     70.21     68.91    -19.47     25.00
   15.0550     69.10     69.09    -20.76     25.00
   15.0652     70.46     69.27    -19.58     25.00
   15.0753     71.51     69.45    -18.71     25.00
   15.0855     70.64     69.63    -19.76     25.00
   15.0956     71.26     69.81    -19.32     25.00
   15.1058     70.21     69.99    -20.55     25.00
   15.1160     69.77     70.17    -21.17     25.00
   15.1261     70.57     70.36    -20.56     25.00
   15.1363     71.40     70.54    -19.91     25.00
   15.1465     71.58     70.73    -19.92     25.00
   15.1566     70.93     70.91    -20.75     25.00
   15.1668     71.88     71.10    -19.99     25.00
   15.1770     71.98     71.29    -20.08     25.00
   15.1871     71.51     71.48    -20.74     25.00
   15.1973     71.96     71.67    -20.48     25.00
   15.2075     71.23     71.86    -21.40     25.00
   15.2176     71.91     72.05    -20.91     25.00
   15.2278     72.22     72.24    -20.79     25.00
   15.2380     72.18     72.43    -21.02     25.00
   15.2481     72.73     72.62    -20.66     25.00
   15.2583     73.59     72.82    -20.00     25.00
   15.2684     72.97     73.01    -20.81     25.00
   15.2786     73.13     73.21    -20.85     25.00
   15.2888     73.66     73.41    -20.52     25.00
   15.2989     73.41     73.60    -20.96     25.00
   15.3091     74.17     73.80    -20.40     25.00
   15.3193     74.01     74.00    -20.76     25.00
   15.3294     73.88     74.20    -21.09     25.00
   15.3396     74.55     74.40    -20.62     25.00
   15.3498     73.74     74.60    -21.63     25.00
   15.3599     73.82     74.80    -21.75     25.00
   15.3701     76.40     75.00    -19.37     25.00
   15.3803     75.07     75.21    -20.91     25.00
   15.3904     77.15     75.41    -19.03     25.00
   15.4006     76.26     75.61    -20.12     25.00
   15.4107     75.71     75.82    -20.88     25.00
   15.4209     75.57     76.03    -21.23     25.00
   15.4311     76.93     76.23    -20.07     25.00
   15.4412     77.00     76.44    -20.21     25.00
   15.4514     76.81     76.65    -20.61     25.00
   15.4616     75.91     76.86    -21.72     25.00
   15.4717     77.32     77.07    -20.52     25.00
   15.4819     77.25     77.28    -20.80     25.00
   15.4921     77.02     77.49    -21.24     25.00
   15.5022     76.02     77.70    -22.45     25.00
   15.5124     77.62     77.91    -21.06     25.00
   15.5226     77.86     78.12    -21.03     25.00
   15.5327     77.96     78.34    -21.15     25.00
   15.5429     79.26     78.55    -20.06     25.00
   15.5530     77.28     78.76    -22.25     25.00
   15.5632     78.88     78.98    -20.87     25.00
   15.5734     78.37     79.20    -21.60     25.00
   15.5835     78.32     79.41    -21.86     25.00
   15.5937     80.46     79.63    -19.94     25.00
   15.6039     79.52     79.85    -21.10     25.00
   15.6140     79.02     80.06    -21.81     25.00
   15.6242     80.26     80.28    -20.79     25.00
   15.6344     78.65     80.50    -22.62     25.00
   15.6445     80.23     80.72    -21.26     25.00
   15.6547     81.08     80.94    -20.63     25.00
   15.6649     78.77     81.16    -23.16     25.00
   15.6750     79.57     81.38    -22.58     25.00
   15.6852     80.49     81.61    -21.89     25.00
   15.6954     80.16     81.83    -22.44     25.00
   15.7055     81.58     82.05    -21.24     25.00
   15.7157     81.68     82.28    -21.37     25.00
   15.7258     81.48     82.50    -21.79     25.00
   15.7360     80.27     82.72    -23.22     25.00
   15.7462     80.83     82.95    -22.89     25.00
   15.7563     82.18     83.17    -21.76     25.00
   15.7665     82.36     83.40    -21.81     25.00
   15.7767     84.26     83.62    -20.13     25.00
   15.7868     83.57     83.85    -21.05     25.00
   15.7970     82.66     84.08    -22.19     25.00
   15.8072     83.46     84.30    -21.61     25.00
   15.8173     84.29     84.53    -21.01     25.00
   15.8275     84.34     84.76    -21.19     25.00
   15.8377     82.63     84.99    -23.13     25.00
   15.8478     84.15     85.21    -21.83     25.00
   15.8580     83.32     85.44    -22.89     25.00
   15.8681     84.10     85.67    -22.34     25.00
   15.8783     82.68     85.90    -23.99     25.00
   15.8885     84.54     86.13    -22.36     25.00
   15.8986     84.35     86.36    -22.78     25.00
   15.9088     84.35     86.59    -23.01     25.00
   15.9190     84.86     86.82    -22.73     25.00
   15.9291     85.09     87.05    -22.73     25.00
   15.9393     86.60     87.28    -21.45     25.00
   15.9495     85.06     87.51    -23.22     25.00
   15.9596     85.79     87.74    -22.72     25.00
   15.9698     87.37     87.97    -21.37     25.00
   15.9800     86.10     88.21    -22.88     25.00
   15.9901     87.84     88.44    -21.37     25.00
   16.0003     86.07     88.67    -23.37     25.00
   16.0105     87.71     88.90    -21.96     25.00
   16.0206     87.73     89.13    -22.17     25.00
   16.0308     86.48     89.36    -23.65     25.00
   16.0409     87.71     89.59    -22.65     25.00
   16.0511     88.25     89.83    -22.35     25.00
   16.0613     88.05     90.06    -22.78     25.00
   16.0714     88.16     90.29    -22.90     25.00
   16.0816     87.49     90.52    -23.80     25.00
   16.0918     89.49     90.75    -22.03     25.00
   16.1019     89.26     90.98    -22.49     25.00
   16.1121     89.34     91.22    -22.65     25.00
   16.1223     90.05     91.45    -22.17     25.00
   16.1324     90.49     91.68    -21.96     25.00
   16.1426     88.70     91.91    -23.98     25.00
   16.1528     89.54     92.14    -23.37     25.00
   16.1629     88.07     92.37    -25.07     25.00
   16.1731     89.93     92.60    -23.44     25.00
   16.1832     89.39     92.83    -24.21     25.00
   16.1934     90.83     93.06    -23.00     25.00
   16.2036     91.33     93.30    -22.74     25.00
   16.2137     89.81     93.52    -24.48     25.00
   16.2239     90.30     93.75    -24.22     25.00
   16.2341     89.93     93.98    -24.82     25.00
   16.2442     92.16     94.21    -22.82     25.00
   16.2544     90.65     94.44    -24.56     25.00
   16.2646     92.59     94.67    -22.85     25.00
   16.2747     92.09     94.90    -23.58     25.00
   16.2849     92.32     95.13    -23.58     25.00
   16.2951     93.19     95.35    -22.93     25.00
   16.3052     92.92     95.58    -23.43     25.00
   16.3154     93.93     95.81    -22.65     25.00
   16.3256     93.96     96.03    -22.84     25.00
   16.3357     93.06     96.26    -23.97     25.00
   16.3459     93.85     96.48    -23.40     25.00
   16.3560     94.17     96.71    -23.31     25.00
   16.3662     95.43     96.93    -22.27     25.00
   16.3764     94.74     97.16    -23.19     25.00
   16.3865     96.12     97.38    -22.03     25.00
   16.3967     95.30     97.60    -23.07     25.00
   16.4069     94.63     97.82    -23.96     25.00
   16.4170     96.91     98.04    -21.90     25.00
   16.4272     95.71     98.27    -23.33     25.00
   16.4374     95.84     98.49    -23.42     25.00
   16.4475     97.39     98.70    -22.08     25.00
   16.4577     96.23     98.92    -23.46     25.00
   16.4679     97.62     99.14    -22.29     25.00
   16.4780     98.33     99.36    -21.80     25.00
   16.4882     97.62     99.58    -22.73     25.00
   16.4983     97.71     99.79    -22.85     25.00
   16.5085     97.71    100.01    -23.07     25.00
   16.5187     96.68    100.22    -24.31     25.00
   16.5288     98.42    100.43    -22.78     25.00
   16.5390     99.35    100.65    -22.07     25.00
   16.5492     98.66    100.86    -22.97     25.00
   16.5593     99.11    101.07    -22.73     25.00
   16.5695     98.83    101.28    -23.22     25.00
   16.5797    100.10    101.49    -22.16     25.00
   16.5898     99.45    101.70    -23.02     25.00
   16.6000     97.90    101.91    -24.78     25.00
   16.6102    101.09    102.11    -21.79     25.00
   16.6203    100.79    102.32    -22.30     25.00
   16.6305    100.95    102.52    -22.34     25.00
   16.6407     99.94    102.73    -23.56     25.00
   16.6508    102.16    102.93    -21.54     25.00
   16.6610    101.14    103.13    -22.76     25.00
   16.6711    101.60    103.33    -22.50     25.00
   16.6813    102.24    103.53    -22.06     25.00
   16.6915    103.01    103.73    -21.49     25.00
   16.7016    101.26    103.92    -23.43     25.00
   16.7118    102.13    104.12    -22.76     25.00
   16.7220    101.63    104.32    -23.46     25.00
   16.7321    102.47    104.51    -22.81     25.00
   16.7423    101.74    104.70    -23.73     25.00
   16.7525    104.76    104.89    -20.90     25.00
   16.7626    102.99    105.08    -22.86     25.00
   16.7728    103.52    105.27    -22.52     25.00
   16.7830    106.59    105.46    -19.64     25.00
   16.7931    104.13    105.64    -22.28     25.00
   16.8033    104.65    105.83    -21.95     25.00
   16.8134    105.50    106.01    -21.28     25.00
   16.8236    103.68    106.20    -23.29     25.00
   16.8338    104.98    106.38    -22.17     25.00
   16.8439    105.21    106.56    -22.12     25.00
   16.8541    106.12    106.74    -21.39     25.00
   16.8643    107.41    106.92    -20.28     25.00
   16.8744    104.07    107.09    -23.79     25.00
   16.8846    105.18    107.27    -22.86     25.00
   16.8948    106.09    107.44    -22.12     25.00
   16.9049    106.38    107.61    -22.00     25.00
   16.9151    108.39    107.78    -20.16     25.00
   16.9253    106.71    107.95    -22.01     25.00
   16.9354    108.53    108.12    -20.36     25.00
   16.9456    107.61    108.29    -21.45     25.00
   16.9558    108.39    108.45    -20.83     25.00
   16.9659    108.42    108.61    -20.96     25.00
   16.9761    108.06    108.78    -21.49     25.00
   16.9862    107.96    108.94    -21.75     25.00
   16.9964    108.07    109.10    -21.80     25.00
   17.0066    107.07    109.26    -22.96     25.00
   17.0167    110.42    109.41    -19.76     25.00
   17.0269    108.48    109.57    -21.86     25.00
   17.0371    109.98    109.73    -20.52     25.00
   17.0472    108.77    109.88    -21.88     25.00
   17.0574    110.60    110.03    -20.20     25.00
   17.0676    110.40    110.18    -20.55     25.00
   17.0777    108.73    110.33    -22.37     25.00
   17.0879    111.79    110.48    -19.46     25.00
   17.0981    109.79    110.63    -21.61     25.00
   17.1082    109.21    110.77    -22.33     25.00
   17.1184    112.09    110.92    -19.60     25.00
   17.1285    110.76    111.06    -21.07     25.00
   17.1387    109.61    111.21    -22.37     25.00
   17.1489    112.89    111.35    -19.23     25.00
   17.1590    111.17    111.49    -21.09     25.00
   17.1692    109.76    111.63    -22.64     25.00
   17.1794    113.66    111.78    -18.89     25.00
   17.1895    112.73    111.91    -19.95     25.00
   17.1997    112.59    112.05    -20.23     25.00
   17.2099    114.39    112.19    -18.57     25.00
   17.2200    112.84    112.33    -20.26     25.00
   17.2302    114.98    112.47    -18.26     25.00
   17.2404    114.79    112.61    -18.59     25.00
   17.2505    112.84    112.75    -20.68     25.00
   17.2607    114.29    112.89    -19.37     25.00
   17.2709    114.93    113.03    -18.87     25.00
   17.2810    114.30    113.17    -19.64     25.00
   17.2912    113.64    113.31    -20.44     25.00
   17.3013    114.09    113.46    -20.14     25.00
   17.3115    115.38    113.60    -18.99     25.00
   17.3217    115.96    113.75    -18.56     25.00
   17.3318    116.52    113.89    -18.14     25.00
   17.3420    115.76    114.04    -19.05     25.00
   17.3522    116.87    114.19    -18.09     25.00
   17.3623    117.27    114.35    -17.85     25.00
   17.3725    116.87    114.50    -18.40     25.00
   17.3827    117.44    114.66    -17.99     25.00
   17.3928    118.89    114.83    -16.71     25.00
   17.4030    117.58    114.99    -18.18     25.00
   17.4132    118.07    115.17    -17.87     25.00
   17.4233    118.48    115.34    -17.63     25.00
   17.4335    118.36    115.52    -17.93     25.00
   17.4436    119.66    115.71    -16.82     25.00
   17.4538    119.96    115.90    -16.71     25.00
   17.4640    120.33    116.10    -16.54     25.00
   17.4741    120.27    116.30    -16.80     25.00
   17.4843    119.82    116.52    -17.47     25.00
   17.4945    120.66    116.74    -16.85     25.00
   17.5046    120.80    116.96    -16.93     25.00
   17.5148    122.70    117.20    -15.27     25.00
   17.5250    120.97    117.45    -17.25     25.00
   17.5351    120.52    117.71    -17.96     25.00
   17.5453    121.78    117.98    -16.97     25.00
   17.5555    122.98    118.26    -16.05     25.00
   17.5656    120.41    118.55    -18.91     25.00
   17.5758    124.42    118.85    -15.20     25.00
   17.5859    123.12    119.17    -16.82     25.00
   17.5961    123.51    119.50    -16.76     25.00
   17.6063    126.12    119.85    -14.50     25.00
   17.6164    125.22    120.21    -15.76     25.00
   17.6266    124.48    120.59    -16.88     25.00
   17.6368    126.12    120.98    -15.63     25.00
   17.6469    126.25    121.39    -15.91     25.00
   17.6571    128.01    121.83    -14.59     25.00
   17.6673    127.30    122.28    -15.75     25.00
   17.6774    128.69    122.75    -14.83     25.00
   17.6876    128.41    123.24    -15.60     25.00
   17.6978    128.16    123.76    -16.37     25.00
   17.7079    131.66    124.29    -13.40     25.00
   17.7181    129.55    124.86    -16.08     25.00
   17.7283    132.35    125.45    -13.87     25.00
   17.7384    130.08    126.05    -16.74     25.00
   17.7486    132.08    126.69    -15.38     25.00
   17.7587    131.59    127.35    -16.53     25.00
   17.7689    132.66    128.05    -16.16     25.00
   17.7791    133.42    128.77    -16.12     25.00
   17.7892    133.71    129.51    -16.57     25.00
   17.7994    134.24    130.29    -16.82     25.00
   17.8096    135.97    131.10    -15.90     25.00
   17.8197    135.01    131.94    -17.70     25.00
   17.8299    134.12    132.81    -19.46     25.00
   17.8401    135.37    133.72    -19.12     25.00
   17.8502    138.94    134.65    -16.48     25.00
   17.8604    137.98    135.62    -18.41     25.00
   17.8706    141.71    136.63    -15.69     25.00
   17.8807    139.35    137.66    -19.08     25.00
   17.8909    140.85    138.73    -18.65     25.00
   17.9010    142.14    139.83    -18.46     25.00
   17.9112    143.76    140.97    -17.98     25.00
   17.9214    141.24    142.15    -21.68     25.00
   17.9315    144.12    143.36    -20.01     25.00
   17.9417    145.39    144.60    -19.98     25.00
   17.9519    144.82    145.89    -21.84     25.00
   17.9620    146.29    147.19    -21.67     25.00
   17.9722    148.13    148.54    -21.18     25.00
   17.9824    149.28    149.93    -21.42     25.00
   17.9925    150.52    151.33    -21.58     25.00
   18.0027    151.32    152.79    -22.24     25.00
   18.0129    151.39    154.27    -23.65     25.00
   18.0230    154.82    155.77    -21.72     25.00
   18.0332    156.57    157.32    -21.52     25.00
   18.0434    156.60    158.89    -23.06     25.00
   18.0535    155.24    160.48    -26.01     25.00
   18.0637    158.96    162.11    -23.92     25.00
   18.0738    160.79    163.75    -23.73     25.00
   18.0840    162.17    165.43    -24.03     25.00
   18.0942    163.66    167.14    -24.25     25.00
   18.1043    161.99    168.84    -27.62     25.00
   18.1145    165.79    170.59    -25.57     25.00
   18.1247    167.74    172.35    -25.38     25.00
   18.1348    169.21    174.11    -25.67     25.00
   18.1450    168.68    175.91    -28.00     25.00
   18.1552    173.01    177.71    -25.47     25.00
   18.1653    172.73    179.51    -27.55     25.00
   18.1755    174.10    181.33    -28.00     25.00
   18.1857    177.06    183.16    -26.87     25.00
   18.1958    178.95    184.97    -26.79     25.00
   18.2060    179.89    186.80    -27.68     25.00
   18.2161    182.59    188.61    -26.79     25.00
   18.2263    184.62    190.43    -26.58     25.00
   18.2365    183.35    192.24    -29.66     25.00
   18.2466    189.95    194.03    -24.85     25.00
   18.2568    189.70    195.82    -26.89     25.00
   18.2670    190.56    197.59    -27.80     25.00
   18.2771    195.98    199.33    -24.12     25.00
   18.2873    197.31    201.06    -24.52     25.00
   18.2975    196.99    202.77    -26.55     25.00
   18.3076    201.98    204.43    -23.22     25.00
   18.3178    202.66    206.08    -24.19     25.00
   18.3280    203.01    207.69    -25.45     25.00
   18.3381    206.82    209.26    -23.21     25.00
   18.3483    208.32    210.79    -23.24     25.00
   18.3585    210.56    212.29    -22.50     25.00
   18.3686    213.73    213.73    -20.77     25.00
   18.3788    216.02    215.13    -19.88     25.00
   18.3889    216.41    216.47    -20.83     25.00
   18.3991    219.04    217.77    -19.50     25.00
   18.4093    220.04    219.01    -19.74     25.00
   18.4194    223.05    220.19    -17.91     25.00
   18.4296    225.09    221.31    -16.99     25.00
   18.4398    227.63    222.37    -15.51     25.00
   18.4499    227.56    223.36    -16.57     25.00
   18.4601    230.95    224.29    -14.11     25.00
   18.4703    231.04    225.16    -14.89     25.00
   18.4804    232.00    225.94    -14.71     25.00
   18.4906    234.37    226.66    -13.06     25.00
   18.5008    233.00    227.31    -15.08     25.00
   18.5109    234.73    227.88    -13.92     25.00
   18.5211    235.08    228.38    -14.07     25.00
   18.5312    236.24    228.79    -13.32     25.00
   18.5414    237.71    229.13    -12.19     25.00
   18.5516    238.37    229.40    -11.80     25.00
   18.5617    239.27    229.58    -11.08     25.00
   18.5719    239.22    229.69    -11.24     25.00
   18.5821    238.76    229.72    -11.73     25.00
   18.5922    238.68    229.66    -11.75     25.00
   18.6024    235.35    229.53    -14.95     25.00
   18.6126    236.61    229.32    -13.48     25.00
   18.6227    236.60    229.04    -13.21     25.00
   18.6329    233.09    228.67    -16.35     25.00
   18.6431    236.21    228.23    -12.79     25.00
   18.6532    234.45    227.72    -14.04     25.00
   18.6634    232.23    227.12    -15.66     25.00
   18.6736    232.60    226.46    -14.63     25.00
   18.6837    230.92    225.73    -15.58     25.00
   18.6939    226.65    224.92    -19.04     25.00
   18.7040    227.91    224.05    -16.91     25.00
   18.7142    226.37    223.11    -17.51     25.00
   18.7244    225.95    222.10    -16.92     25.00
   18.7345    222.88    221.04    -18.93     25.00
   18.7447    219.88    219.91    -20.80     25.00
   18.7549    219.52    218.73    -19.98     25.00
   18.7650    221.01    217.50    -17.26     25.00
   18.7752    216.12    216.20    -20.85     25.00
   18.7854    213.52    214.86    -22.11     25.00
   18.7955    212.96    213.48    -21.29     25.00
   18.8057    209.66    212.04    -23.15     25.00
   18.8159    205.87    210.57    -25.47     25.00
   18.8260    204.58    209.07    -25.26     25.00
   18.8362    204.28    207.51    -24.00     25.00
   18.8463    200.95    205.94    -25.76     25.00
   18.8565    196.49    204.33    -28.61     25.00
   18.8667    197.70    202.69    -25.76     25.00
   18.8768    194.65    201.04    -27.16     25.00
   18.8870    191.78    199.35    -28.34     25.00
   18.8972    192.87    197.65    -25.55     25.00
   18.9073    189.98    195.95    -26.74     25.00
   18.9175    189.18    194.22    -25.81     25.00
   18.9277    186.26    192.48    -26.99     25.00
   18.9378    183.18    190.75    -28.34     25.00
   18.9480    183.73    189.00    -26.04     25.00
   18.9582    181.80    187.25    -26.22     25.00
   18.9683    177.02    185.52    -29.27     25.00
   18.9785    178.09    183.78    -26.46     25.00
   18.9887    176.33    182.04    -26.48     25.00
   18.9988    173.74    180.33    -27.36     25.00
   19.0090    174.96    178.62    -24.43     25.00
   19.0191    172.96    176.94    -24.75     25.00
   19.0293    169.90    175.25    -26.12     25.00
   19.0395    169.37    173.59    -24.99     25.00
   19.0496    169.54    171.96    -23.19     25.00
   19.0598    165.16    170.34    -25.95     25.00
   19.0700    166.50    168.74    -23.01     25.00
   19.0801    164.04    167.19    -23.92     25.00
   19.0903    161.07    165.65    -25.35     25.00
   19.1005    162.40    164.13    -22.50     25.00
   19.1106    159.57    162.66    -23.86     25.00
   19.1208    160.05    161.21    -21.93     25.00
   19.1310    158.20    159.79    -22.36     25.00
   19.1411    158.16    158.42    -21.03     25.00
   19.1513    156.44    157.07    -21.40     25.00
   19.1614    155.50    155.77    -21.04     25.00
   19.1716    155.23    154.50    -20.04     25.00
   19.1818    154.52    153.26    -19.51     25.00
   19.1919    153.42    152.07    -19.42     25.00
   19.2021    153.13    150.90    -18.54     25.00
   19.2123    149.96    149.78    -20.59     25.00
   19.2224    153.39    148.70    -16.08     25.00
   19.2326    151.04    147.65    -17.38     25.00
   19.2428    148.26    146.65    -19.16     25.00
   19.2529    146.99    145.69    -19.47     25.00
   19.2631    149.55    144.76    -15.98     25.00
   19.2733    147.79    143.86    -16.84     25.00
   19.2834    147.10    143.02    -16.69     25.00
   19.2936    144.98    142.20    -17.99     25.00
   19.3038    144.21    141.43    -17.99     25.00
   19.3139    143.12    140.69    -18.34     25.00
   19.3241    142.98    139.99    -17.78     25.00
   19.3342    143.37    139.33    -16.73     25.00
   19.3444    143.04    138.70    -16.43     25.00
   19.3546    142.41    138.10    -16.46     25.00
   19.3647    142.13    137.55    -16.19     25.00
   19.3749    142.03    137.02    -15.76     25.00
   19.3851    140.58    136.52    -16.71     25.00
   19.3952    140.33    136.07    -16.51     25.00
   19.4054    139.84    135.63    -16.56     25.00
   19.4156    141.06    135.23    -14.94     25.00
   19.4257    139.38    134.87    -16.26     25.00
   19.4359    139.60    134.53    -15.70     25.00
   19.4461    138.37    134.21    -16.61     25.00
   19.4562    136.99    133.93    -17.71     25.00
   19.4664    138.75    133.67    -15.69     25.00
   19.4765    138.13    133.44    -16.08     25.00
   19.4867    137.60    133.22    -16.39     25.00
   19.4969    136.43    133.04    -17.38     25.00
   19.5070    137.26    132.88    -16.39     25.00
   19.5172    136.08    132.73    -17.42     25.00
   19.5274    136.05    132.61    -17.33     25.00
   19.5375    136.09    132.51    -17.19     25.00
   19.5477    136.81    132.43    -16.39     25.00
   19.5579    136.70    132.36    -16.43     25.00
   19.5680    136.35    132.31    -16.73     25.00
   19.5782    135.81    132.28    -17.24     25.00
   19.5884    135.25    132.27    -17.79     25.00
   19.5985    132.68    132.27    -20.36     25.00
   19.6087    132.59    132.28    -20.46     25.00
   19.6188    132.24    132.31    -20.84     25.00
   19.6290    134.18    132.34    -18.93     25.00
   19.6392    132.68    132.39    -20.48     25.00
   19.6493    133.70    132.45    -19.52     25.00
   19.6595    133.46    132.53    -19.84     25.00
   19.6697    134.82    132.61    -18.56     25.00
   19.6798    133.64    132.69    -19.82     25.00
   19.6900    133.46    132.79    -20.10     25.00
   19.7002    132.22    132.90    -21.45     25.00
   19.7103    134.23    133.01    -19.55     25.00
   19.7205    132.03    133.12    -21.86     25.00
   19.7307    132.31    133.25    -21.71     25.00
   19.7408    133.05    133.38    -21.10     25.00
   19.7510    132.13    133.51    -22.15     25.00
   19.7612    133.33    133.65    -21.09     25.00
   19.7713    132.27    133.78    -22.28     25.00
   19.7815    133.93    133.93    -20.77     25.00
   19.7916    132.53    134.07    -22.31     25.00
   19.8018    132.53    134.22    -22.46     25.00
   19.8120    131.09    134.37    -24.05     25.00
   19.8221    132.05    134.52    -23.24     25.00
   19.8323    133.03    134.67    -22.41     25.00
   19.8425    132.37    134.82    -23.22     25.00
   19.8526    131.40    134.97    -24.34     25.00
   19.8628    133.21    135.12    -22.68     25.00
   19.8730    132.04    135.27    -24.00     25.00
   19.8831    130.86    135.42    -25.33     25.00
   19.8933    134.22    135.56    -22.11     25.00
   19.9035    134.35    135.71    -22.13     25.00
   19.9136    130.79    135.85    -25.83     25.00
   19.9238    134.07    135.99    -22.69     25.00
   19.9339    132.84    136.13    -24.06     25.00
   19.9441    132.43    136.27    -24.61     25.00
   19.9543    132.38    136.40    -24.79     25.00
   19.9644    132.79    136.53    -24.51     25.00
   19.9746    133.07    136.65    -24.35     25.00
   19.9848    131.57    136.77    -25.97     25.00
   19.9949    131.61    136.89    -26.05     25.00
   20.0051    131.98    137.00    -25.79     25.00
   20.0153    131.68    137.11    -26.20     25.00
   20.0254    131.88    137.22    -26.11     25.00
   20.0356    132.79    137.32    -25.30     25.00
   20.0458    133.32    137.41    -24.86     25.00
   20.0559    134.50    137.50    -23.77     25.00
   20.0661    132.98    137.58    -25.37     25.00
   20.0763    134.65    137.66    -23.78     25.00
   20.0864    134.38    137.74    -24.13     25.00
   20.0966    134.09    137.80    -24.48     25.00
   20.1067    134.79    137.87    -23.85     25.00
   20.1169    133.23    137.92    -25.46     25.00
   20.1271    134.48    137.97    -24.26     25.00
   20.1372    135.27    138.02    -23.52     25.00
   20.1474    135.05    138.05    -23.77     25.00
   20.1576    134.46    138.08    -24.39     25.00
   20.1677    136.43    138.11    -22.45     25.00
   20.1779    136.45    138.13    -22.45     25.00
   20.1881    134.22    138.14    -24.69     25.00
   20.1982    137.90    138.15    -21.02     25.00
   20.2084    135.73    138.14    -23.18     25.00
   20.2186    135.43    138.14    -23.48     25.00
   20.2287    136.54    138.12    -22.35     25.00
   20.2389    134.35    138.10    -24.52     25.00
   20.2490    135.68    138.07    -23.16     25.00
   20.2592    138.95    138.04    -19.86     25.00
   20.2694    136.45    138.00    -22.32     25.00
   20.2795    135.60    137.95    -23.12     25.00
   20.2897    137.28    137.89    -21.38     25.00
   20.2999    137.51    137.83    -21.09     25.00
   20.3100    136.01    137.76    -22.52     25.00
   20.3202    138.45    137.69    -20.01     25.00
   20.3304    136.55    137.61    -21.83     25.00
   20.3405    137.53    137.52    -20.76     25.00
   20.3507    137.71    137.42    -20.48     25.00
   20.3609    137.93    137.32    -20.16     25.00
   20.3710    138.64    137.21    -19.34     25.00
   20.3812    137.82    137.09    -20.04     25.00
   20.3914    137.29    136.97    -20.45     25.00
   20.4015    137.68    136.84    -19.93     25.00
   20.4117    139.68    136.70    -17.79     25.00
   20.4218    139.38    136.56    -17.95     25.00
   20.4320    135.80    136.41    -21.38     25.00
   20.4422    138.98    136.26    -18.05     25.00
   20.4523    139.54    136.10    -17.33     25.00
   20.4625    138.04    135.93    -18.66     25.00
   20.4727    138.24    135.75    -18.28     25.00
   20.4828    138.45    135.57    -17.89     25.00
   20.4930    138.01    135.39    -18.15     25.00
   20.5032    138.66    135.20    -17.31     25.00
   20.5133    138.37    135.00    -17.40     25.00
   20.5235    137.22    134.80    -18.35     25.00
   20.5337    138.89    134.59    -16.47     25.00
   20.5438    138.03    134.37    -17.11     25.00
   20.5540    135.43    134.15    -19.49     25.00
   20.5641    135.96    133.93    -18.74     25.00
   20.5743    138.88    133.70    -15.59     25.00
   20.5845    136.63    133.46    -17.60     25.00
   20.5946    137.88    133.23    -16.12     25.00
   20.6048    138.03    132.98    -15.72     25.00
   20.6150    134.89    132.73    -18.61     25.00
   20.6251    135.14    132.48    -18.11     25.00
   20.6353    133.57    132.23    -19.43     25.00
   20.6455    134.37    131.96    -18.36     25.00
   20.6556    135.43    131.70    -17.04     25.00
   20.6658    136.80    131.43    -15.40     25.00
   20.6760    134.68    131.16    -17.25     25.00
   20.6861    135.63    130.89    -16.03     25.00
   20.6963    134.48    130.61    -16.90     25.00
   20.7065    131.78    130.33    -19.32     25.00
   20.7166    132.09    130.05    -18.73     25.00
   20.7268    131.62    129.76    -18.91     25.00
   20.7369    131.70    129.47    -18.54     25.00
   20.7471    132.03    129.18    -17.92     25.00
   20.7573    132.49    128.89    -17.17     25.00
   20.7674    128.02    128.60    -21.35     25.00
   20.7776    131.76    128.30    -17.31     25.00
   20.7878    131.35    128.00    -17.42     25.00
   20.7979    129.70    127.71    -18.78     25.00
   20.8081    130.27    127.41    -17.91     25.00
   20.8183    129.30    127.11    -18.58     25.00
   20.8284    128.08    126.81    -19.50     25.00
   20.8386    128.96    126.51    -18.32     25.00
   20.8488    127.25    126.21    -19.73     25.00
   20.8589    125.52    125.92    -21.17     25.00
   20.8691    125.88    125.62    -20.51     25.00
   20.8792    126.98    125.32    -19.11     25.00
   20.8894    126.32    125.02    -19.47     25.00
   20.8996    127.62    124.73    -17.88     25.00
   20.9097    125.63    124.44    -19.58     25.00
   20.9199    124.80    124.15    -20.12     25.00
   20.9301    124.70    123.86    -19.93     25.00
   20.9402    125.00    123.57    -19.34     25.00
   20.9504    122.41    123.29    -21.65     25.00
   20.9606    124.59    123.00    -19.18     25.00
   20.9707    122.78    122.73    -20.72     25.00
   20.9809    121.37    122.45    -21.85     25.00
   20.9911    124.47    122.18    -18.48     25.00
   21.0012    122.67    121.92    -20.02     25.00
   21.0114    121.41    121.65    -21.01     25.00
   21.0216    122.09    121.39    -20.07     25.00
   21.0317    120.88    121.14    -21.03     25.00
   21.0419    120.14    120.89    -21.52     25.00
   21.0520    121.05    120.65    -20.37     25.00
   21.0622    120.15    120.41    -21.03     25.00
   21.0724    119.18    120.18    -21.77     25.00
   21.0825    119.22    119.95    -21.50     25.00
   21.0927    119.12    119.73    -21.38     25.00
   21.1029    118.87    119.52    -21.42     25.00
   21.1130    120.39    119.31    -19.69     25.00
   21.1232    119.43    119.11    -20.45     25.00
   21.1334    116.78    118.92    -22.91     25.00
   21.1435    117.88    118.73    -21.62     25.00
   21.1537    117.85    118.55    -21.47     25.00
   21.1639    116.58    118.38    -22.57     25.00
   21.1740    118.98    118.22    -20.01     25.00
   21.1842    116.96    118.07    -21.88     25.00
   21.1943    115.65    117.93    -23.05     25.00
   21.2045    117.87    117.79    -20.69     25.00
   21.2147    117.41    117.66    -21.02     25.00
   21.2248    118.24    117.55    -20.08     25.00
   21.2350    117.33    117.44    -20.88     25.00
   21.2452    117.13    117.34    -20.98     25.00
   21.2553    116.23    117.25    -21.79     25.00
   21.2655    114.40    117.17    -23.54     25.00
   21.2757    115.43    117.11    -22.45     25.00
   21.2858    114.66    117.05    -23.16     25.00
   21.2960    114.48    117.00    -23.29     25.00
   21.3062    116.41    116.96    -21.32     25.00
   21.3163    115.72    116.94    -21.99     25.00
   21.3265    117.42    116.92    -20.27     25.00
   21.3366    115.71    116.92    -21.98     25.00
   21.3468    113.43    116.93    -24.27     25.00
   21.3570    116.54    116.95    -21.18     25.00
   21.3671    115.41    116.98    -22.34     25.00
   21.3773    114.35    117.02    -23.44     25.00
   21.3875    114.68    117.07    -23.16     25.00
   21.3976    115.36    117.14    -22.55     25.00
   21.4078    114.62    117.21    -23.36     25.00
   21.4180    115.30    117.30    -22.77     25.00
   21.4281    116.21    117.40    -21.96     25.00
   21.4383    115.32    117.52    -22.97     25.00
   21.4485    115.46    117.64    -22.95     25.00
   21.4586    114.91    117.78    -23.64     25.00
   21.4688    113.13    117.93    -25.57     25.00
   21.4790    117.19    118.09    -21.67     25.00
   21.4891    116.12    118.26    -22.91     25.00
   21.4993    115.93    118.44    -23.28     25.00
   21.5094    115.99    118.64    -23.42     25.00
   21.5196    118.65    118.85    -20.97     25.00
   21.5298    116.54    119.07    -23.30     25.00
   21.5399    116.97    119.30    -23.10     25.00
   21.5501    117.09    119.54    -23.22     25.00
   21.5603    116.69    119.80    -23.88     25.00
   21.5704    118.40    120.06    -22.43     25.00
   21.5806    118.79    120.34    -22.32     25.00
   21.5908    117.97    120.62    -23.42     25.00
   21.6009    119.21    120.92    -22.48     25.00
   21.6111    118.79    121.23    -23.21     25.00
   21.6213    118.59    121.55    -23.73     25.00
   21.6314    118.32    121.88    -24.33     25.00
   21.6416    119.80    122.22    -23.19     25.00
   21.6517    120.78    122.56    -22.55     25.00
   21.6619    121.32    122.92    -22.37     25.00
   21.6721    120.91    123.29    -23.15     25.00
   21.6822    121.48    123.66    -22.95     25.00
   21.6924    123.98    124.05    -20.84     25.00
   21.7026    123.26    124.44    -21.95     25.00
   21.7127    122.56    124.84    -23.05     25.00
   21.7229    125.15    125.25    -20.87     25.00
   21.7331    124.05    125.67    -22.39     25.00
   21.7432    124.54    126.09    -22.32     25.00
   21.7534    125.51    126.52    -21.78     25.00
   21.7636    125.20    126.96    -22.53     25.00
   21.7737    125.30    127.40    -22.87     25.00
   21.7839    126.51    127.84    -22.10     25.00
   21.7941    126.46    128.30    -22.61     25.00
   21.8042    127.19    128.75    -22.33     25.00
   21.8144    128.80    129.21    -21.18     25.00
   21.8245    132.81    129.67    -17.63     25.00
   21.8347    129.06    130.14    -21.85     25.00
   21.8449    130.90    130.61    -20.48     25.00
   21.8550    131.79    131.08    -20.06     25.00
   21.8652    131.89    131.56    -20.44     25.00
   21.8754    134.62    132.03    -18.18     25.00
   21.8855    131.69    132.51    -21.59     25.00
   21.8957    133.79    132.99    -19.97     25.00
   21.9059    135.62    133.46    -18.61     25.00
   21.9160    135.88    133.93    -18.82     25.00
   21.9262    134.89    134.41    -20.29     25.00
   21.9364    136.04    134.88    -19.61     25.00
   21.9465    136.41    135.35    -19.71     25.00
   21.9567    137.98    135.82    -18.61     25.00
   21.9668    138.58    136.28    -18.47     25.00
   21.9770    138.96    136.74    -18.55     25.00
   21.9872    137.29    137.20    -20.68     25.00
   21.9973    137.72    137.65    -20.70     25.00
   22.0075    141.72    138.09    -17.14     25.00
   22.0177    141.09    138.53    -18.21     25.00
   22.0278    143.28    138.96    -16.45     25.00
   22.0380    140.47    139.39    -19.69     25.00
   22.0482    141.43    139.81    -19.15     25.00
   22.0583    141.48    140.21    -19.50     25.00
   22.0685    144.12    140.61    -17.26     25.00
   22.0787    141.41    141.01    -20.37     25.00
   22.0888    142.60    141.39    -19.56     25.00
   22.0990    142.62    141.76    -19.91     25.00
   22.1092    143.46    142.12    -19.43     25.00
   22.1193    143.88    142.47    -19.36     25.00
   22.1295    145.57    142.81    -18.01     25.00
   22.1396    144.24    143.13    -19.66     25.00
   22.1498    148.37    143.45    -15.85     25.00
   22.1600    145.66    143.75    -18.86     25.00
   22.1701    147.42    144.03    -17.38     25.00
   22.1803    146.70    144.31    -18.38     25.00
   22.1905    147.62    144.57    -17.72     25.00
   22.2006    148.45    144.81    -17.13     25.00
   22.2108    148.45    145.04    -17.36     25.00
   22.2210    149.13    145.26    -16.90     25.00
   22.2311    147.66    145.45    -18.56     25.00
   22.2413    148.86    145.64    -17.55     25.00
   22.2515    148.43    145.80    -18.14     25.00
   22.2616    146.77    145.95    -19.95     25.00
   22.2718    147.87    146.08    -18.98     25.00
   22.2819    149.46    146.20    -17.51     25.00
   22.2921    147.52    146.30    -19.55     25.00
   22.3023    149.13    146.38    -18.02     25.00
   22.3124    149.09    146.44    -18.12     25.00
   22.3226    149.18    146.48    -18.07     25.00
   22.3328    150.18    146.51    -17.10     25.00
   22.3429    150.82    146.51    -16.46     25.00
   22.3531    149.69    146.50    -17.58     25.00
   22.3633    150.34    146.47    -16.90     25.00
   22.3734    149.02    146.42    -18.17     25.00
   22.3836    147.84    146.35    -19.28     25.00
   22.3938    148.02    146.26    -19.01     25.00
   22.4039    149.98    146.16    -16.95     25.00
   22.4141    145.87    146.03    -20.93     25.00
   22.4243    149.13    145.89    -17.53     25.00
   22.4344    147.10    145.72    -19.39     25.00
   22.4446    146.17    145.54    -20.14     25.00
   22.4547    145.93    145.34    -20.18     25.00
   22.4649    146.95    145.12    -18.94     25.00
   22.4751    145.64    144.88    -20.01     25.00
   22.4852    146.49    144.62    -18.90     25.00
   22.4954    144.46    144.34    -20.65     25.00
   22.5056    145.00    144.04    -19.81     25.00
   22.5157    144.80    143.73    -19.70     25.00
   22.5259    142.50    143.40    -21.67     25.00
   22.5361    142.26    143.05    -21.56     25.00
   22.5462    140.01    142.68    -23.44     25.00
   22.5564    142.14    142.29    -20.92     25.00
   22.5666    140.08    141.89    -22.58     25.00
   22.5767    139.54    141.47    -22.70     25.00
   22.5869    140.02    141.04    -21.79     25.00
   22.5970    138.46    140.59    -22.90     25.00
   22.6072    139.02    140.12    -21.87     25.00
   22.6174    140.15    139.63    -20.25     25.00
   22.6275    136.30    139.13    -23.60     25.00
   22.6377    137.65    138.62    -21.74     25.00
   22.6479    136.30    138.09    -22.56     25.00
   22.6580    137.24    137.55    -21.08     25.00
   22.6682    134.21    136.99    -23.55     25.00
   22.6784    132.59    136.41    -24.59     25.00
   22.6885    133.43    135.83    -23.17     25.00
   22.6987    133.27    135.24    -22.74     25.00
   22.7089    132.21    134.63    -23.19     25.00
   22.7190    129.29    134.01    -25.49     25.00
   22.7292    132.18    133.38    -21.97     25.00
   22.7394    130.77    132.73    -22.73     25.00
   22.7495    127.38    132.08    -25.47     25.00
   22.7597    128.65    131.42    -23.54     25.00
   22.7698    129.48    130.75    -22.04     25.00
   22.7800    125.74    130.07    -25.10     25.00
   22.7902    125.60    129.37    -24.54     25.00
   22.8003    126.17    128.68    -23.28     25.00
   22.8105    124.35    127.97    -24.39     25.00
   22.8207    124.15    127.26    -23.88     25.00
   22.8308    124.05    126.54    -23.26     25.00
   22.8410    122.55    125.82    -24.04     25.00
   22.8512    122.73    125.08    -23.12     25.00
   22.8613    120.66    124.35    -24.46     25.00
   22.8715    119.29    123.61    -25.09     25.00
   22.8817    120.81    122.86    -22.82     25.00
   22.8918    120.04    122.12    -22.85     25.00
   22.9020    117.93    121.36    -24.20     25.00
   22.9121    117.88    120.62    -23.51     25.00
   22.9223    116.79    119.86    -23.84     25.00
   22.9325    116.18    119.10    -23.69     25.00
   22.9426    115.65    118.34    -23.46     25.00
   22.9528    115.93    117.58    -22.42     25.00
   22.9630    112.46    116.81    -25.12     25.00
   22.9731    113.38    116.06    -23.45     25.00
   22.9833    113.14    115.29    -22.92     25.00
   22.9935    111.39    114.53    -23.91     25.00
   23.0036    112.57    113.78    -21.98     25.00
   23.0138    111.30    113.02    -22.49     25.00
   23.0240    110.84    112.26    -22.19     25.00
   23.0341    109.77    111.51    -22.51     25.00
   23.0443    110.02    110.76    -21.51     25.00
   23.0545    108.81    110.01    -21.97     25.00
   23.0646    106.65    109.28    -23.40     25.00
   23.0748    107.21    108.53    -22.09     25.00
   23.0849    106.18    107.80    -22.39     25.00
   23.0951    106.71    107.07    -21.13     25.00
   23.1053    106.96    106.34    -20.15     25.00
   23.1154    105.45    105.63    -20.95     25.00
   23.1256    105.49    104.91    -20.19     25.00
   23.1358    104.21    104.20    -20.76     25.00
   23.1459    103.63    103.50    -20.64     25.00
   23.1561    103.28    102.80    -20.29     25.00
   23.1663    101.99    102.11    -20.89     25.00
   23.1764     99.41    101.43    -22.79     25.00
   23.1866    102.25    100.75    -19.27     25.00
   23.1968    100.66    100.07    -20.18     25.00
   23.2069     98.10     99.42    -22.09     25.00
   23.2171     99.73     98.76    -19.80     25.00
   23.2272     98.28     98.11    -20.60     25.00
   23.2374     98.31     97.47    -19.93     25.00
   23.2476     98.11     96.84    -19.50     25.00
   23.2577     98.68     96.22    -18.31     25.00
   23.2679     95.43     95.60    -20.94     25.00
   23.2781     96.35     94.99    -19.41     25.00
   23.2882     96.62     94.40    -18.55     25.00
   23.2984     94.23     93.80    -20.34     25.00
   23.3086     94.40     93.22    -19.59     25.00
   23.3187     93.71     92.65    -19.71     25.00
   23.3289     94.46     92.08    -18.39     25.00
   23.3391     95.02     91.53    -17.28     25.00
   23.3492     92.61     90.98    -19.14     25.00
   23.3594     92.08     90.44    -19.13     25.00
   23.3695     91.68     89.92    -19.01     25.00
   23.3797     92.48     89.40    -17.69     25.00
   23.3899     89.15     88.88    -20.50     25.00
   23.4000     92.26     88.38    -16.89     25.00
   23.4102     91.42     87.89    -17.24     25.00
   23.4204     88.61     87.40    -19.56     25.00
   23.4305     89.18     86.93    -18.52     25.00
   23.4407     87.63     86.46    -19.60     25.00
   23.4509     87.09     86.00    -19.68     25.00
   23.4610     88.73     85.56    -17.60     25.00
   23.4712     86.93     85.11    -18.95     25.00
   23.4814     87.82     84.68    -17.63     25.00
   23.4915     87.29     84.26    -17.74     25.00
   23.5017     87.07     83.84    -17.54     25.00
   23.5119     85.78     83.44    -18.43     25.00
   23.5220     84.84     83.04    -18.97     25.00
   23.5322     84.89     82.65    -18.53     25.00
   23.5423     84.54     82.27    -18.50     25.00
   23.5525     84.47     81.89    -18.19     25.00
   23.5627     84.18     81.53    -18.12     25.00
   23.5728     83.31     81.17    -18.63     25.00
   23.5830     84.50     80.82    -17.09     25.00
   23.5932     82.19     80.48    -19.06     25.00
   23.6033     82.96     80.14    -17.95     25.00
   23.6135     81.87     79.81    -18.71     25.00
   23.6237     82.73     79.49    -17.53     25.00
   23.6338     82.12     79.18    -17.83     25.00
   23.6440     80.82     78.87    -18.82     25.00
   23.6542     82.09     78.57    -17.25     25.00
   23.6643     81.16     78.28    -17.89     25.00
   23.6745     81.13     77.99    -17.63     25.00
   23.6846     80.17     77.71    -18.31     25.00
   23.6948     80.02     77.44    -18.19     25.00
   23.7050     80.62     77.17    -17.32     25.00
   23.7151     79.87     76.91    -17.81     25.00
   23.7253     79.16     76.65    -18.26     25.00
   23.7355     79.40     76.40    -17.77     25.00
   23.7456     77.12     76.16    -19.81     25.00
   23.7558     77.52     75.92    -19.17     25.00
   23.7660     77.73     75.68    -18.72     25.00
   23.7761     77.04     75.46    -19.19     25.00
   23.7863     78.95     75.23    -17.05     25.00
   23.7965     77.23     75.01    -18.55     25.00
   23.8066     76.80     74.80    -18.77     25.00
   23.8168     77.09     74.59    -18.27     25.00
   23.8270     77.21     74.39    -17.95     25.00
   23.8371     75.91     74.19    -19.05     25.00
   23.8473     76.22     73.99    -18.54     25.00
   23.8574     75.20     73.80    -19.37     25.00
   23.8676     75.19     73.61    -19.19     25.00
   23.8778     74.88     73.43    -19.32     25.00
   23.8879     74.68     73.25    -19.34     25.00
   23.8981     74.80     73.08    -19.05     25.00
   23.9083     73.16     72.90    -20.51     25.00
   23.9184     74.38     72.74    -19.13     25.00
   23.9286     74.45     72.57    -18.89     25.00
   23.9388     73.74     72.41    -19.44     25.00
   23.9489     72.54     72.25    -20.48     25.00
   23.9591     72.09     72.10    -20.78     25.00
   23.9693     73.18     71.94    -19.53     25.00
   23.9794     72.82     71.79    -19.74     25.00
   23.9896     73.23     71.65    -19.19     25.00
   23.9997     71.96     71.50    -20.31     25.00
   24.0099     73.32     71.36    -18.81     25.00
   24.0201     72.95     71.22    -19.04     25.00
   24.0302     72.13     71.09    -19.73     25.00
   24.0404     71.96     70.95    -19.76     25.00
   24.0506     72.09     70.82    -19.50     25.00
   24.0607     70.74     70.69    -20.72     25.00
   24.0709     70.96     70.56    -20.37     25.00
   24.0811     71.18     70.43    -20.02     25.00
   24.0912     69.73     70.31    -21.35     25.00
   24.1014     69.81     70.19    -21.15     25.00
   24.1116     69.62     70.07    -21.22     25.00
   24.1217     68.96     69.95    -21.76     25.00
   24.1319     70.57     69.83    -20.03     25.00
   24.1421     69.17     69.71    -21.31     25.00
   24.1522     71.06     69.60    -19.31     25.00
   24.1624     70.16     69.49    -20.10     25.00
   24.1725     68.87     69.38    -21.28     25.00
   24.1827     68.17     69.27    -21.87     25.00
   24.1929     67.80     69.16    -22.13     25.00
   24.2030     68.75     69.05    -21.07     25.00
   24.2132     68.33     68.94    -21.38     25.00
   24.2234     68.05     68.84    -21.56     25.00
   24.2335     68.62     68.73    -20.88     25.00
   24.2437     68.04     68.63    -21.36     25.00
   24.2539     68.29     68.53    -21.01     25.00
   24.2640     67.47     68.42    -21.72     25.00
   24.2742     66.70     68.32    -22.39     25.00
   24.2844     68.12     68.22    -20.87     25.00
   24.2945     67.00     68.12    -21.89     25.00
   24.3047     67.04     68.03    -21.76     25.00
   24.3148     67.16     67.93    -21.54     25.00
   24.3250     67.63     67.83    -20.97     25.00
   24.3352     66.57     67.73    -21.93     25.00
   24.3453     67.12     67.64    -21.29     25.00
   24.3555     65.81     67.54    -22.50     25.00
   24.3657     65.48     67.45    -22.74     25.00
   24.3758     66.63     67.35    -21.49     25.00
   24.3860     66.00     67.26    -22.03     25.00
   24.3962     64.87     67.17    -23.07     25.00
   24.4063     65.36     67.07    -22.48     25.00
   24.4165     66.13     66.98    -21.62     25.00
   24.4267     65.26     66.89    -22.40     25.00
   24.4368     65.03     66.80    -22.54     25.00
   24.4470     66.47     66.71    -21.01     25.00
   24.4572     65.37     66.62    -22.02     25.00
   24.4673     64.14     66.53    -23.16     25.00
   24.4775     65.55     66.44    -21.66     25.00
   24.4876     63.49     66.35    -23.63     25.00
   24.4978     62.54     66.26    -24.49     25.00
   24.5080     63.71     66.17    -23.23     25.00
   24.5181     64.33     66.08    -22.52     25.00
   24.5283     63.91     65.99    -22.85     25.00
   24.5385     64.32     65.90    -22.35     25.00
   24.5486     64.01     65.81    -22.57     25.00
   24.5588     63.44     65.72    -23.05     25.00
   24.5690     63.71     65.64    -22.70     25.00
   24.5791     62.66     65.55    -23.66     25.00
   24.5893     63.67     65.46    -22.56     25.00
   24.5995     63.59     65.37    -22.55     25.00
   24.6096     63.62     65.29    -22.44     25.00
   24.6198     62.57     65.20    -23.40     25.00
   24.6299     62.89     65.11    -22.99     25.00
   24.6401     64.34     65.03    -21.46     25.00
   24.6503     63.84     64.94    -21.87     25.00
   24.6604     62.72     64.85    -22.90     25.00
   24.6706     63.02     64.77    -22.52     25.00
   24.6808     62.36     64.68    -23.09     25.00
   24.6909     62.83     64.59    -22.53     25.00
   24.7011     63.00     64.51    -22.28     25.00
   24.7113     60.98     64.42    -24.21     25.00
   24.7214     61.20     64.33    -23.90     25.00
   24.7316     61.79     64.25    -23.23     25.00
   24.7418     62.13     64.16    -22.80     25.00
   24.7519     62.05     64.08    -22.80     25.00
   24.7621     63.59     63.99    -21.17     25.00
   24.7723     61.43     63.91    -23.25     25.00
   24.7824     61.16     63.82    -23.43     25.00
   24.7926     61.91     63.73    -22.59     25.00
   24.8027     60.73     63.65    -23.69     25.00
   24.8129     60.41     63.56    -23.92     25.00
   24.8231     62.31     63.48    -21.94     25.00
   24.8332     61.05     63.39    -23.11     25.00
   24.8434     61.75     63.31    -22.33     25.00
   24.8536     62.45     63.22    -21.54     25.00
   24.8637     59.93     63.14    -23.98     25.00
   24.8739     61.75     63.05    -22.07     25.00
   24.8841     60.34     62.97    -23.40     25.00
   24.8942     60.45     62.88    -23.20     25.00
   24.9044     60.77     62.80    -22.80     25.00
   24.9146     60.85     62.71    -22.63     25.00
   24.9247     60.09     62.63    -23.31     25.00
   24.9349     59.95     62.55    -23.37     25.00
   24.9450     60.92     62.46    -22.31     25.00
   24.9552     60.96     62.38    -22.19     25.00
   24.9654     60.70     62.29    -22.36     25.00
   24.9755     59.55     62.21    -23.43     25.00
   24.9857     59.38     62.12    -23.51     25.00
   24.9959     59.83     62.04    -22.98     25.00
   25.0060     58.46     61.96    -24.27     25.00
   25.0162     60.84     61.87    -21.80     25.00
   25.0264     59.09     61.79    -23.47     25.00
   25.0365     58.74     61.70    -23.73     25.00
   25.0467     58.66     61.62    -23.73     25.00
   25.0569     59.90     61.53    -22.40     25.00
   25.0670     59.24     61.45    -22.98     25.00
   25.0772     58.65     61.37    -23.49     25.00
   25.0874     59.66     61.28    -22.39     25.00
   25.0975     58.83     61.20    -23.14     25.00
   25.1077     58.58     61.12    -23.31     25.00
   25.1178     60.12     61.03    -21.68     25.00
   25.1280     59.24     60.95    -22.48     25.00
   25.1382     59.61     60.87    -22.03     25.00
   25.1483     58.82     60.78    -22.73     25.00
   25.1585     59.65     60.70    -21.82     25.00
   25.1687     59.21     60.62    -22.18     25.00
   25.1788     59.13     60.53    -22.17     25.00
   25.1890     58.36     60.45    -22.86     25.00
   25.1992     60.07     60.37    -21.07     25.00
   25.2093     58.49     60.28    -22.56     25.00
   25.2195     57.26     60.20    -23.71     25.00
   25.2297     58.71     60.12    -22.18     25.00
   25.2398     58.04     60.03    -22.76     25.00
   25.2500     57.96     59.95    -22.76     25.00
   25.2601     57.62     59.87    -23.02     25.00
   25.2703     57.32     59.79    -23.24     25.00
   25.2805     57.95     59.70    -22.52     25.00
   25.2906     58.24     59.62    -22.15     25.00
   25.3008     58.03     59.54    -22.28     25.00
   25.3110     57.71     59.46    -22.52     25.00
   25.3211     56.91     59.38    -23.24     25.00
   25.3313     57.45     59.29    -22.61     25.00
   25.3415     56.34     59.21    -23.64     25.00
   25.3516     57.26     59.13    -22.64     25.00
   25.3618     57.09     59.05    -22.73     25.00
   25.3720     56.85     58.97    -22.89     25.00
   25.3821     58.00     58.88    -21.65     25.00
   25.3923     56.16     58.80    -23.41     25.00
   25.4024     56.35     58.72    -23.14     25.00
   25.4126     57.51     58.64    -21.90     25.00
   25.4228     56.47     58.56    -22.86     25.00
   25.4329     57.42     58.48    -21.83     25.00
   25.4431     57.09     58.40    -22.08     25.00
   25.4533     56.73     58.31    -22.35     25.00
   25.4634     56.95     58.23    -22.05     25.00
   25.4736     56.80     58.15    -22.12     25.00
   25.4838     56.30     58.07    -22.54     25.00
   25.4939     57.31     57.99    -21.45     25.00
   25.5041     56.43     57.91    -22.25     25.00
   25.5143     57.54     57.83    -21.06     25.00
   25.5244     55.23     57.75    -23.29     25.00
   25.5346     56.18     57.67    -22.26     25.00
   25.5448     55.88     57.59    -22.48     25.00
   25.5549     56.12     57.51    -22.16     25.00
   25.5651     56.21     57.43    -21.99     25.00
   25.5752     56.21     57.35    -21.91     25.00
   25.5854     55.27     57.27    -22.77     25.00
   25.5956     55.31     57.19    -22.65     25.00
   25.6057     56.17     57.11    -21.71     25.00
   25.6159     54.97     57.03    -22.83     25.00
   25.6261     55.30     56.95    -22.42     25.00
   25.6362     56.37     56.88    -21.28     25.00
   25.6464     55.98     56.80    -21.59     25.00
   25.6566     56.08     56.72    -21.41     25.00
   25.6667     55.49     56.64    -21.92     25.00
   25.6769     55.10     56.56    -22.23     25.00
   25.6871     55.52     56.48    -21.73     25.00
   25.6972     55.49     56.40    -21.68     25.00
   25.7074     55.68     56.32    -21.41     25.00
   25.7175     55.40     56.25    -21.62     25.00
   25.7277     56.10     56.17    -20.84     25.00
   25.7379     54.57     56.09    -22.29     25.00
   25.7480     55.99     56.01    -20.79     25.00
   25.7582     53.99     55.94    -22.72     25.00
   25.7684     54.83     55.86    -21.80     25.00
   25.7785     55.09     55.78    -21.46     25.00
   25.7887     54.06     55.70    -22.41     25.00
   25.7989     54.25     55.63    -22.15     25.00
   25.8090     55.52     55.55    -20.80     25.00
   25.8192     55.26     55.47    -20.98     25.00
   25.8294     54.60     55.40    -21.57     25.00
   25.8395     55.30     55.32    -20.79     25.00
   25.8497     54.55     55.24    -21.46     25.00
   25.8599     53.43     55.17    -22.51     25.00
   25.8700     55.23     55.09    -20.63     25.00
   25.8802     54.19     55.02    -21.60     25.00
   25.8903     54.31     54.94    -21.40     25.00
   25.9005     54.62     54.87    -21.02     25.00
   25.9107     54.85     54.79    -20.71     25.00
   25.9208     53.97     54.72    -21.52     25.00
   25.9310     54.97     54.64    -20.44     25.00
   25.9412     52.95     54.57    -22.39     25.00
   25.9513     52.60     54.49    -22.66     25.00
   25.9615     53.95     54.42    -21.24     25.00
   25.9717     54.79     54.34    -20.32     25.00
   25.9818     53.88     54.27    -21.16     25.00
   25.9920     54.37     54.19    -20.59     25.00
   26.0022     53.37     54.12    -21.52     25.00
   26.0123     53.98     54.05    -20.84     25.00
   26.0225     54.09     53.97    -20.65     25.00
   26.0326     53.15     53.90    -21.52     25.00
   26.0428     53.20     53.83    -21.40     25.00
   26.0530     53.66     53.75    -20.86     25.00
   26.0631     53.35     53.68    -21.10     25.00
   26.0733     54.54     53.61    -19.84     25.00
   26.0835     53.34     53.54    -20.97     25.00
   26.0936     52.88     53.47    -21.36     25.00
   26.1038     52.15     53.39    -22.01     25.00
   26.1140     53.37     53.32    -20.72     25.00
   26.1241     53.09     53.25    -20.93     25.00
   26.1343     52.69     53.18    -21.26     25.00
   26.1445     53.38     53.11    -20.50     25.00
   26.1546     52.90     53.04    -20.91     25.00
   26.1648     51.96     52.97    -21.78     25.00
   26.1750     53.15     52.90    -20.52     25.00
   26.1851     52.77     52.83    -20.83     25.00
   26.1953     52.79     52.76    -20.74     25.00
   26.2054     52.84     52.69    -20.62     25.00
   26.2156     52.21     52.62    -21.18     25.00
   26.2258     53.35     52.55    -19.97     25.00
   26.2359     53.53     52.48    -19.72     25.00
   26.2461     52.23     52.41    -20.95     25.00
   26.2563     53.30     52.34    -19.81     25.00
   26.2664     51.79     52.28    -21.26     25.00
   26.2766     52.89     52.21    -20.09     25.00
   26.2868     53.12     52.14    -19.79     25.00
   26.2969     52.47     52.07    -20.37     25.00
   26.3071     52.46     52.01    -20.32     25.00
   26.3173     52.49     51.94    -20.22     25.00
   26.3274     52.17     51.87    -20.47     25.00
   26.3376     51.70     51.81    -20.88     25.00
   26.3477     51.31     51.74    -21.20     25.00
   26.3579     51.90     51.68    -20.55     25.00
   26.3681     51.32     51.61    -21.06     25.00
   26.3782     51.37     51.55    -20.95     25.00
   26.3884     51.63     51.48    -20.62     25.00
   26.3986     52.12     51.42    -20.07     25.00
   26.4087     52.65     51.35    -19.47     25.00
   26.4189     51.18     51.29    -20.88     25.00
   26.4291     52.35     51.23    -19.65     25.00
   26.4392     52.21     51.17    -19.73     25.00
   26.4494     50.43     51.10    -21.44     25.00
   26.4596     52.46     51.04    -19.35     25.00
   26.4697     50.94     50.98    -20.81     25.00
   26.4799     50.28     50.92    -21.41     25.00
   26.4901     51.33     50.86    -20.30     25.00
   26.5002     51.53     50.80    -20.04     25.00
   26.5104     51.35     50.74    -20.16     25.00
   26.5205     50.56     50.68    -20.89     25.00
   26.5307     50.47     50.62    -20.92     25.00
   26.5409     51.66     50.56    -19.67     25.00
   26.5510     51.13     50.50    -20.14     25.00
   26.5612     51.59     50.45    -19.63     25.00
   26.5714     50.91     50.39    -20.25     25.00
   26.5815     52.04     50.33    -19.06     25.00
   26.5917     51.46     50.28    -19.59     25.00
   26.6019     50.69     50.22    -20.30     25.00
   26.6120     51.02     50.17    -19.92     25.00
   26.6222     49.70     50.12    -21.19     25.00
   26.6324     51.55     50.06    -19.28     25.00
   26.6425     49.88     50.01    -20.90     25.00
   26.6527     49.79     49.96    -20.94     25.00
   26.6628     49.38     49.91    -21.30     25.00
   26.6730     51.36     49.86    -19.27     25.00
   26.6832     50.53     49.81    -20.05     25.00
   26.6933     50.53     49.76    -20.00     25.00
   26.7035     51.23     49.71    -19.25     25.00
   26.7137     50.08     49.66    -20.35     25.00
   26.7238     50.90     49.61    -19.48     25.00
   26.7340     50.41     49.57    -19.93     25.00
   26.7442     50.37     49.52    -19.92     25.00
   26.7543     50.23     49.48    -20.02     25.00
   26.7645     49.98     49.44    -20.23     25.00
   26.7747     50.70     49.39    -19.46     25.00
   26.7848     49.41     49.35    -20.71     25.00
   26.7950     50.94     49.31    -19.14     25.00
   26.8052     49.59     49.27    -20.45     25.00
   26.8153     50.34     49.23    -19.66     25.00
   26.8255     49.41     49.20    -20.56     25.00
   26.8356     50.22     49.16    -19.71     25.00
   26.8458     49.96     49.12    -19.93     25.00
   26.8560     50.43     49.09    -19.43     25.00
   26.8661     49.80     49.06    -20.03     25.00
   26.8763     51.31     49.02    -18.48     25.00
   26.8865     50.63     48.99    -19.13     25.00
   26.8966     50.30     48.96    -19.43     25.00
   26.9068     49.30     48.94    -20.41     25.00
   26.9170     50.59     48.91    -19.09     25.00
   26.9271     49.13     48.88    -20.52     25.00
   26.9373     51.38     48.86    -18.25     25.00
   26.9475     49.84     48.84    -19.77     25.00
   26.9576     49.88     48.82    -19.71     25.00
   26.9678     50.66     48.80    -18.91     25.00
   26.9779     49.84     48.78    -19.71     25.00
   26.9881     48.82     48.76    -20.71     25.00
   26.9983     50.52     48.74    -18.99     25.00
   27.0084     49.74     48.73    -19.76     25.00
   27.0186     50.35     48.72    -19.14     25.00
   27.0288     49.02     48.71    -20.46     25.00
   27.0389     50.01     48.70    -19.46     25.00
   27.0491     49.95     48.69    -19.51     25.00
   27.0593     50.82     48.69    -18.64     25.00
   27.0694     49.89     48.69    -19.57     25.00
   27.0796     49.99     48.68    -19.46     25.00
   27.0898     49.82     48.68    -19.63     25.00
   27.0999     50.22     48.69    -19.24     25.00
   27.1101     49.57     48.69    -19.89     25.00
   27.1202     49.06     48.70    -20.41     25.00
   27.1304     49.24     48.71    -20.24     25.00
   27.1406     49.13     48.72    -20.36     25.00
   27.1507     49.59     48.73    -19.91     25.00
   27.1609     49.44     48.74    -20.07     25.00
   27.1711     50.08     48.76    -19.45     25.00
   27.1812     50.03     48.78    -19.52     25.00
   27.1914     50.20     48.80    -19.37     25.00
   27.2016     49.93     48.83    -19.67     25.00
   27.2117     48.52     48.85    -21.10     25.00
   27.2219     48.74     48.88    -20.91     25.00
   27.2321     49.12     48.91    -20.56     25.00
   27.2422     48.95     48.95    -20.77     25.00
   27.2524     50.07     48.98    -19.68     25.00
   27.2626     49.99     49.02    -19.80     25.00
   27.2727     49.34     49.06    -20.49     25.00
   27.2829     50.12     49.11    -19.76     25.00
   27.2930     49.67     49.15    -20.25     25.00
   27.3032     49.53     49.20    -20.44     25.00
   27.3134     50.87     49.25    -19.15     25.00
   27.3235     48.96     49.30    -21.11     25.00
   27.3337     49.83     49.36    -20.30     25.00
   27.3439     49.76     49.42    -20.43     25.00
   27.3540     49.36     49.48    -20.89     25.00
   27.3642     50.36     49.55    -19.96     25.00
   27.3744     49.94     49.62    -20.45     25.00
   27.3845     48.84     49.69    -21.62     25.00
   27.3947     49.96     49.76    -20.57     25.00
   27.4049     50.32     49.84    -20.29     25.00
   27.4150     49.88     49.91    -20.80     25.00
   27.4252     49.95     49.99    -20.81     25.00
   27.4353     49.95     50.08    -20.90     25.00
   27.4455     49.95     50.17    -20.99     25.00
   27.4557     50.54     50.26    -20.49     25.00
   27.4658     50.21     50.35    -20.91     25.00
   27.4760     49.46     50.44    -21.75     25.00
   27.4862     49.45     50.54    -21.86     25.00
   27.4963     50.52     50.64    -20.89     25.00
   27.5065     51.01     50.75    -20.51     25.00
   27.5167     49.05     50.85    -22.57     25.00
   27.5268     50.32     50.96    -21.41     25.00
   27.5370     50.20     51.08    -21.65     25.00
   27.5472     50.02     51.19    -21.94     25.00
   27.5573     49.71     51.31    -22.37     25.00
   27.5675     51.34     51.43    -20.86     25.00
   27.5777     49.96     51.55    -22.36     25.00
   27.5878     51.67     51.68    -20.78     25.00
   27.5980     51.88     51.80    -20.69     25.00
   27.6081     51.24     51.93    -21.46     25.00
   27.6183     52.37     52.07    -20.47     25.00
   27.6285     50.34     52.20    -22.63     25.00
   27.6386     51.72     52.34    -21.39     25.00
   27.6488     51.52     52.48    -21.73     25.00
   27.6590     51.30     52.62    -22.09     25.00
   27.6691     52.26     52.76    -21.27     25.00
   27.6793     51.42     52.91    -22.26     25.00
   27.6895     52.34     53.06    -21.49     25.00
   27.6996     51.83     53.21    -22.15     25.00
   27.7098     52.62     53.36    -21.51     25.00
   27.7200     52.45     53.52    -21.84     25.00
   27.7301     52.75     53.67    -21.69     25.00
   27.7403     52.37     53.83    -22.23     25.00
   27.7504     52.20     53.99    -22.56     25.00
   27.7606     52.88     54.15    -22.04     25.00
   27.7708     53.60     54.31    -21.48     25.00
   27.7809     53.09     54.47    -22.15     25.00
   27.7911     53.99     54.64    -21.42     25.00
   27.8013     53.35     54.81    -22.23     25.00
   27.8114     53.45     54.97    -22.29     25.00
   27.8216     54.38     55.14    -21.53     25.00
   27.8318     53.24     55.31    -22.84     25.00
   27.8419     54.05     55.48    -22.20     25.00
   27.8521     54.01     55.65    -22.41     25.00
   27.8623     53.52     55.82    -23.07     25.00
   27.8724     54.04     55.99    -22.72     25.00
   27.8826     55.76     56.16    -21.17     25.00
   27.8928     55.26     56.33    -21.84     25.00
   27.9029     56.08     56.50    -21.19     25.00
   27.9131     55.65     56.67    -21.79     25.00
   27.9232     56.37     56.84    -21.24     25.00
   27.9334     56.26     57.01    -21.52     25.00
   27.9436     55.37     57.18    -22.58     25.00
   27.9537     57.51     57.35    -20.61     25.00
   27.9639     56.27     57.52    -22.02     25.00
   27.9741     57.15     57.69    -21.31     25.00
   27.9842     56.94     57.85    -21.68     25.00
   27.9944     58.31     58.02    -20.48     25.00
   28.0046     56.87     58.18    -22.08     25.00
   28.0147     58.45     58.34    -20.66     25.00
   28.0249     57.71     58.50    -21.56     25.00
   28.0351     56.93     58.66    -22.50     25.00
   28.0452     58.61     58.82    -20.98     25.00
   28.0554     57.82     58.97    -21.92     25.00
   28.0655     59.13     59.13    -20.77     25.00
   28.0757     59.41     59.28    -20.64     25.00
   28.0859     59.38     59.43    -20.82     25.00
   28.0960     58.26     59.57    -22.08     25.00
   28.1062     59.12     59.71    -21.36     25.00
   28.1164     58.77     59.85    -21.85     25.00
   28.1265     60.04     59.99    -20.72     25.00
   28.1367     59.40     60.13    -21.50     25.00
   28.1469     60.70     60.26    -20.33     25.00
   28.1570     60.89     60.38    -20.26     25.00
   28.1672     59.30     60.51    -21.98     25.00
   28.1774     60.55     60.63    -20.85     25.00
   28.1875     61.84     60.75    -19.68     25.00
   28.1977     61.43     60.86    -20.20     25.00
   28.2079     61.34     60.97    -20.40     25.00
   28.2180     60.96     61.07    -20.88     25.00
   28.2282     62.22     61.17    -19.72     25.00
   28.2383     63.24     61.27    -18.80     25.00
   28.2485     63.12     61.36    -19.01     25.00
   28.2587     62.99     61.45    -19.23     25.00
   28.2688     63.66     61.53    -18.64     25.00
   28.2790     63.51     61.61    -18.87     25.00
   28.2892     63.54     61.69    -18.92     25.00
   28.2993     64.23     61.76    -18.30     25.00
   28.3095     63.01     61.82    -19.58     25.00
   28.3197     64.63     61.88    -18.02     25.00
   28.3298     63.90     61.94    -18.81     25.00
   28.3400     63.02     61.99    -19.74     25.00
   28.3502     62.96     62.03    -19.84     25.00
   28.3603     63.71     62.07    -19.13     25.00
   28.3705     62.91     62.10    -19.96     25.00
   28.3806     64.04     62.13    -18.86     25.00
   28.3908     62.85     62.15    -20.07     25.00
   28.4010     63.04     62.17    -19.90     25.00
   28.4111     63.67     62.18    -19.28     25.00
   28.4213     62.79     62.19    -20.17     25.00
   28.4315     63.68     62.19    -19.28     25.00
   28.4416     63.97     62.19    -18.99     25.00
   28.4518     63.41     62.18    -19.54     25.00
   28.4620     63.69     62.16    -19.24     25.00
   28.4721     63.32     62.14    -19.59     25.00
   28.4823     62.79     62.12    -20.10     25.00
   28.4925     61.46     62.08    -21.39     25.00
   28.5026     63.52     62.05    -19.30     25.00
   28.5128     63.18     62.00    -19.59     25.00
   28.5230     62.72     61.96    -20.01     25.00
   28.5331     64.21     61.90    -18.46     25.00
   28.5433     63.79     61.84    -18.82     25.00
   28.5534     62.65     61.78    -19.90     25.00
   28.5636     62.71     61.71    -19.77     25.00
   28.5738     64.48     61.63    -17.92     25.00
   28.5839     62.55     61.55    -19.77     25.00
   28.5941     62.30     61.47    -19.94     25.00
   28.6043     62.39     61.38    -19.76     25.00
   28.6144     60.87     61.28    -21.18     25.00
   28.6246     61.44     61.18    -20.51     25.00
   28.6348     62.01     61.07    -19.83     25.00
   28.6449     60.29     60.96    -21.44     25.00
   28.6551     60.42     60.85    -21.20     25.00
   28.6653     61.17     60.73    -20.33     25.00
   28.6754     60.76     60.60    -20.61     25.00
   28.6856     59.85     60.47    -21.39     25.00
   28.6957     60.71     60.34    -20.40     25.00
   28.7059     60.61     60.20    -20.36     25.00
   28.7161     60.53     60.06    -20.30     25.00
   28.7262     59.43     59.92    -21.26     25.00
   28.7364     59.82     59.77    -20.72     25.00
   28.7466     59.77     59.61    -20.61     25.00
   28.7567     59.79     59.45    -20.43     25.00
   28.7669     57.90     59.29    -22.16     25.00
   28.7771     58.18     59.13    -21.72     25.00
   28.7872     58.69     58.96    -21.04     25.00
   28.7974     57.73     58.79    -21.83     25.00
   28.8076     58.71     58.61    -20.67     25.00
   28.8177     58.66     58.43    -20.54     25.00
   28.8279     57.10     58.25    -21.92     25.00
   28.8381     57.96     58.07    -20.88     25.00
   28.8482     56.47     57.88    -22.18     25.00
   28.8584     56.68     57.69    -21.78     25.00
   28.8685     56.61     57.50    -21.66     25.00
   28.8787     57.09     57.31    -20.99     25.00
   28.8889     56.80     57.11    -21.08     25.00
   28.8990     56.65     56.92    -21.04     25.00
   28.9092     55.56     56.71    -21.92     25.00
   28.9194     54.96     56.51    -22.32     25.00
   28.9295     54.66     56.31    -22.42     25.00
   28.9397     54.90     56.11    -21.98     25.00
   28.9499     54.48     55.90    -22.19     25.00
   28.9600     54.65     55.69    -21.81     25.00
   28.9702     54.41     55.48    -21.84     25.00
   28.9804     54.40     55.27    -21.64     25.00
   28.9905     54.73     55.06    -21.10     25.00
   29.0007     54.49     54.85    -21.13     25.00
   29.0108     53.79     54.64    -21.62     25.00
   29.0210     52.95     54.43    -22.25     25.00
   29.0312     52.59     54.22    -22.40     25.00
   29.0413     53.62     54.01    -21.16     25.00
   29.0515     51.04     53.79    -23.52     25.00
   29.0617     52.74     53.58    -21.61     25.00
   29.0718     52.29     53.37    -21.85     25.00
   29.0820     52.74     53.15    -21.18     25.00
   29.0922     53.45     52.94    -20.26     25.00
   29.1023     51.52     52.73    -21.98     25.00
   29.1125     51.20     52.52    -22.09     25.00
   29.1227     52.26     52.31    -20.82     25.00
   29.1328     51.37     52.10    -21.50     25.00
   29.1430     50.78     51.89    -21.88     25.00
   29.1531     50.99     51.68    -21.46     25.00
   29.1633     50.55     51.47    -21.69     25.00
   29.1735     51.10     51.27    -20.94     25.00
   29.1836     49.92     51.06    -21.91     25.00
   29.1938     50.35     50.86    -21.28     25.00
   29.2040     49.98     50.66    -21.45     25.00
   29.2141     49.37     50.46    -21.86     25.00
   29.2243     49.53     50.26    -21.50     25.00
   29.2345     49.68     50.06    -21.15     25.00
   29.2446     50.12     49.86    -20.51     25.00
   29.2548     49.27     49.67    -21.17     25.00
   29.2650     49.15     49.47    -21.09     25.00
   29.2751     47.65     49.28    -22.40     25.00
   29.2853     48.96     49.09    -20.90     25.00
   29.2955     48.72     48.91    -20.96     25.00
   29.3056     49.04     48.72    -20.45     25.00
   29.3158     48.20     48.54    -21.11     25.00
   29.3259     48.60     48.36    -20.53     25.00
   29.3361     47.54     48.18    -21.41     25.00
   29.3463     49.30     48.00    -19.47     25.00
   29.3564     47.60     47.83    -21.00     25.00
   29.3666     48.63     47.65    -19.79     25.00
   29.3768     46.99     47.48    -21.26     25.00
   29.3869     47.60     47.32    -20.49     25.00
   29.3971     47.52     47.15    -20.40     25.00
   29.4073     46.28     46.98    -21.47     25.00
   29.4174     47.66     46.82    -19.93     25.00
   29.4276     46.94     46.66    -20.49     25.00
   29.4378     47.05     46.51    -20.23     25.00
   29.4479     46.66     46.35    -20.46     25.00
   29.4581     46.08     46.20    -20.89     25.00
   29.4682     45.95     46.05    -20.87     25.00
   29.4784     46.37     45.90    -20.30     25.00
   29.4886     46.40     45.76    -20.13     25.00
   29.4987     45.10     45.62    -21.29     25.00
   29.5089     46.47     45.47    -19.77     25.00
   29.5191     45.30     45.34    -20.81     25.00
   29.5292     44.49     45.20    -21.48     25.00
   29.5394     45.46     45.07    -20.38     25.00
   29.5496     46.31     44.93    -19.39     25.00
   29.5597     44.63     44.81    -20.95     25.00
   29.5699     45.54     44.68    -19.91     25.00
   29.5801     45.77     44.55    -19.55     25.00
   29.5902     45.18     44.43    -20.02     25.00
   29.6004     44.80     44.31    -20.28     25.00
   29.6106     46.62     44.19    -18.34     25.00
   29.6207     45.06     44.08    -19.79     25.00
   29.6309     44.04     43.96    -20.69     25.00
   29.6410     44.37     43.85    -20.25     25.00
   29.6512     44.67     43.74    -19.84     25.00
   29.6614     44.86     43.63    -19.54     25.00
   29.6715     45.13     43.53    -19.17     25.00
   29.6817     44.62     43.43    -19.58     25.00
   29.6919     45.80     43.32    -18.29     25.00
   29.7020     43.82     43.22    -20.17     25.00
   29.7122     44.51     43.13    -19.39     25.00
   29.7224     44.33     43.03    -19.47     25.00
   29.7325     44.03     42.94    -19.68     25.00
   29.7427     44.79     42.84    -18.82     25.00
   29.7529     43.06     42.75    -20.46     25.00
   29.7630     44.55     42.66    -18.88     25.00
   29.7732     43.87     42.57    -19.47     25.00
   29.7833     43.62     42.49    -19.64     25.00
   29.7935     43.98     42.40    -19.19     25.00
   29.8037     43.82     42.32    -19.27     25.00
   29.8138     42.63     42.24    -20.38     25.00
   29.8240     44.51     42.16    -18.42     25.00
   29.8342     43.70     42.08    -19.15     25.00
   29.8443     43.24     42.01    -19.54     25.00
   29.8545     44.91     41.93    -17.79     25.00
   29.8647     42.83     41.86    -19.80     25.00
   29.8748     44.00     41.78    -18.55     25.00
   29.8850     43.14     41.71    -19.34     25.00
   29.8952     42.37     41.64    -20.04     25.00
   29.9053     43.44     41.57    -18.90     25.00
   29.9155     44.65     41.50    -17.62     25.00
   29.9257     42.85     41.44    -19.36     25.00
   29.9358     43.43     41.37    -18.71     25.00
   29.9460     42.96     41.30    -19.11     25.00
   29.9561     41.96     41.24    -20.05     25.00
   29.9663     43.32     41.18    -18.63     25.00
   29.9765     43.33     41.12    -18.56     25.00
   29.9866     41.74     41.06    -20.09     25.00
   29.9968     42.26     40.99    -19.50     25.00
   30.0070     42.49     40.93    -19.21     25.00
   30.0171     42.49     40.88    -19.16     25.00
   30.0273     42.20     40.82    -19.39     25.00
   30.0375     42.84     40.76    -18.69     25.00
   30.0476     41.86     40.71    -19.62     25.00
   30.0578     42.94     40.65    -18.48     25.00
   30.0680     42.15     40.59    -19.21     25.00
   30.0781     42.01     40.54    -19.30     25.00
   30.0883     41.84     40.49    -19.42     25.00
   30.0984     41.96     40.43    -19.24     25.00
   30.1086     41.07     40.38    -20.08     25.00
   30.1188     41.32     40.33    -19.78     25.00
   30.1289     41.48     40.28    -19.57     25.00
   30.1391     41.54     40.23    -19.46     25.00
   30.1493     41.70     40.18    -19.25     25.00
   30.1594     41.52     40.13    -19.38     25.00
   30.1696     40.78     40.08    -20.07     25.00
   30.1798     41.37     40.03    -19.43     25.00
   30.1899     41.42     39.98    -19.33     25.00
   30.2001     40.31     39.93    -20.39     25.00
   30.2103     41.52     39.88    -19.13     25.00
   30.2204     40.34     39.83    -20.26     25.00
   30.2306     40.30     39.79    -20.26     25.00
   30.2408     41.18     39.74    -19.33     25.00
   30.2509     39.96     39.69    -20.50     25.00
   30.2611     40.45     39.64    -19.96     25.00
   30.2712     39.96     39.60    -20.41     25.00
   30.2814     41.27     39.55    -19.05     25.00
   30.2916     39.34     39.51    -20.94     25.00
   30.3017     39.76     39.46    -20.47     25.00
   30.3119     40.92     39.41    -19.26     25.00
   30.3221     38.83     39.37    -21.31     25.00
   30.3322     39.62     39.32    -20.47     25.00
   30.3424     39.81     39.28    -20.24     25.00
   30.3526     39.19     39.23    -20.81     25.00
   30.3627     38.77     39.19    -21.19     25.00
   30.3729     39.95     39.14    -19.96     25.00
   30.3831     39.43     39.10    -20.44     25.00
   30.3932     39.46     39.05    -20.36     25.00
   30.4034     38.83     39.01    -20.95     25.00
   30.4135     38.36     38.96    -21.37     25.00
   30.4237     39.30     38.92    -20.39     25.00
   30.4339     39.57     38.87    -20.07     25.00
   30.4440     38.26     38.83    -21.34     25.00
   30.4542     38.59     38.78    -20.96     25.00
   30.4644     38.14     38.74    -21.37     25.00
   30.4745     38.91     38.70    -20.56     25.00
   30.4847     37.96     38.65    -21.46     25.00
   30.4949     38.39     38.61    -20.99     25.00
   30.5050     38.03     38.56    -21.30     25.00
   30.5152     37.75     38.52    -21.54     25.00
   30.5254     38.87     38.47    -20.37     25.00
   30.5355     37.51     38.43    -21.69     25.00
   30.5457     37.01     38.39    -22.15     25.00
   30.5559     37.69     38.34    -21.42     25.00
   30.5660     37.23     38.30    -21.84     25.00
   30.5762     37.02     38.25    -22.00     25.00
   30.5863     37.31     38.21    -21.67     25.00
   30.5965     37.03     38.16    -21.90     25.00
   30.6067     37.75     38.12    -21.14     25.00
   30.6168     37.02     38.08    -21.83     25.00
   30.6270     38.68     38.03    -20.12     25.00
   30.6372     37.07     37.99    -21.69     25.00
   30.6473     37.45     37.94    -21.26     25.00
   30.6575     37.47     37.90    -21.20     25.00
   30.6677     37.10     37.85    -21.52     25.00
   30.6778     37.41     37.81    -21.17     25.00
   30.6880     36.71     37.76    -21.82     25.00
   30.6982     37.17     37.72    -21.32     25.00
   30.7083     36.49     37.68    -21.96     25.00
   30.7185     36.59     37.63    -21.81     25.00
   30.7286     37.37     37.59    -20.99     25.00
   30.7388     36.57     37.54    -21.74     25.00
   30.7490     36.26     37.50    -22.01     25.00
   30.7591     36.56     37.45    -21.66     25.00
   30.7693     36.27     37.41    -21.91     25.00
   30.7795     36.91     37.36    -21.22     25.00
   30.7896     35.93     37.32    -22.16     25.00
   30.7998     35.91     37.27    -22.13     25.00
   30.8100     35.40     37.23    -22.60     25.00
   30.8201     36.36     37.18    -21.59     25.00
   30.8303     35.74     37.14    -22.17     25.00
   30.8405     36.21     37.10    -21.66     25.00
   30.8506     36.21     37.05    -21.61     25.00
   30.8608     36.29     37.01    -21.49     25.00
   30.8710     35.82     36.96    -21.91     25.00
   30.8811     35.74     36.92    -21.95     25.00
   30.8913     36.12     36.87    -21.52     25.00
   30.9014     34.55     36.83    -23.05     25.00
   30.9116     36.49     36.78    -21.06     25.00
   30.9218     36.23     36.74    -21.28     25.00
   30.9319     34.90     36.69    -22.56     25.00
   30.9421     35.41     36.65    -22.01     25.00
   30.9523     35.80     36.61    -21.58     25.00
   30.9624     35.34     36.56    -21.99     25.00
   30.9726     35.50     36.52    -21.79     25.00
   30.9828     35.56     36.47    -21.68     25.00
   30.9929     35.15     36.43    -22.05     25.00
   31.0031     35.95     36.38    -21.20     25.00
   31.0133     34.92     36.34    -22.19     25.00
   31.0234     34.88     36.30    -22.19     25.00
   31.0336     34.87     36.25    -22.15     25.00
   31.0437     35.90     36.21    -21.08     25.00
   31.0539     34.57     36.16    -22.36     25.00
   31.0641     35.10     36.12    -21.79     25.00
   31.0742     34.66     36.08    -22.19     25.00
   31.0844     34.77     36.03    -22.03     25.00
   31.0946     35.33     35.99    -21.43     25.00
   31.1047     34.34     35.95    -22.38     25.00
   31.1149     34.35     35.90    -22.32     25.00
   31.1251     35.47     35.86    -21.16     25.00
   31.1352     34.21     35.82    -22.38     25.00
   31.1454     33.38     35.77    -23.16     25.00
   31.1556     35.35     35.73    -21.15     25.00
   31.1657     34.63     35.69    -21.83     25.00
   31.1759     35.52     35.64    -20.89     25.00
   31.1860     34.88     35.60    -21.49     25.00
   31.1962     34.93     35.56    -21.40     25.00
   31.2064     33.93     35.52    -22.36     25.00
   31.2165     34.37     35.47    -21.87     25.00
   31.2267     34.24     35.43    -21.96     25.00
   31.2369     34.08     35.39    -22.08     25.00
   31.2470     34.27     35.35    -21.85     25.00
   31.2572     34.35     35.31    -21.73     25.00
   31.2674     34.16     35.26    -21.87     25.00
   31.2775     34.17     35.22    -21.82     25.00
   31.2877     34.18     35.18    -21.77     25.00
   31.2979     34.09     35.14    -21.82     25.00
   31.3080     34.63     35.10    -21.24     25.00
   31.3182     34.42     35.06    -21.41     25.00
   31.3284     34.05     35.02    -21.74     25.00
   31.3385     34.07     34.98    -21.68     25.00
   31.3487     34.36     34.94    -21.35     25.00
   31.3588     34.44     34.90    -21.23     25.00
   31.3690     34.40     34.86    -21.23     25.00
   31.3792     33.13     34.82    -22.46     25.00
   31.3893     34.11     34.78    -21.44     25.00
   31.3995     33.15     34.74    -22.36     25.00
   31.4097     34.11     34.70    -21.36     25.00
   31.4198     33.27     34.66    -22.16     25.00
   31.4300     33.93     34.62    -21.46     25.00
   31.4402     34.34     34.58    -21.01     25.00
   31.4503     33.45     34.54    -21.86     25.00
   31.4605     33.71     34.50    -21.56     25.00
   31.4707     33.49     34.47    -21.75     25.00
   31.4808     33.91     34.43    -21.29     25.00
   31.4910     33.64     34.39    -21.52     25.00
   31.5011     33.87     34.35    -21.25     25.00
   31.5113     33.50     34.32    -21.59     25.00
   31.5215     33.04     34.28    -22.01     25.00
   31.5316     33.65     34.24    -21.36     25.00
   31.5418     33.40     34.21    -21.58     25.00
   31.5520     33.34     34.17    -21.60     25.00
   31.5621     33.47     34.13    -21.43     25.00
   31.5723     34.60     34.10    -20.27     25.00
   31.5825     33.72     34.06    -21.11     25.00
   31.5926     33.88     34.03    -20.92     25.00
   31.6028     33.29     33.99    -21.47     25.00
   31.6130     33.25     33.96    -21.48     25.00
   31.6231     33.72     33.92    -20.97     25.00
   31.6333     32.80     33.89    -21.86     25.00
   31.6435     33.70     33.85    -20.92     25.00
   31.6536     32.01     33.82    -22.58     25.00
   31.6638     32.23     33.79    -22.33     25.00
   31.6739     32.86     33.75    -21.66     25.00
   31.6841     32.66     33.72    -21.83     25.00
   31.6943     33.07     33.69    -21.39     25.00
   31.7044     33.04     33.65    -21.38     25.00
   31.7146     34.26     33.62    -20.13     25.00
   31.7248     32.53     33.59    -21.83     25.00
   31.7349     32.86     33.56    -21.47     25.00
   31.7451     32.91     33.53    -21.39     25.00
   31.7553     32.63     33.50    -21.64     25.00
   31.7654     33.79     33.46    -20.44     25.00
   31.7756     33.74     33.43    -20.46     25.00
   31.7858     33.11     33.40    -21.06     25.00
   31.7959     33.13     33.37    -21.01     25.00
   31.8061     33.35     33.34    -20.76     25.00
   31.8162     33.05     33.31    -21.03     25.00
   31.8264     32.88     33.28    -21.17     25.00
   31.8366     33.02     33.25    -21.00     25.00
   31.8467     32.00     33.23    -22.00     25.00
   31.8569     32.21     33.20    -21.76     25.00
   31.8671     33.37     33.17    -20.57     25.00
   31.8772     32.83     33.14    -21.08     25.00
   31.8874     32.29     33.11    -21.59     25.00
   31.8976     33.38     33.08    -20.47     25.00
   31.9077     32.98     33.06    -20.85     25.00
   31.9179     33.13     33.03    -20.67     25.00
   31.9281     33.13     33.00    -20.64     25.00
   31.9382     32.05     32.98    -21.70     25.00
   31.9484     32.19     32.95    -21.53     25.00
   31.9586     33.05     32.92    -20.64     25.00
   31.9687     32.99     32.90    -20.68     25.00
   31.9789     32.31     32.87    -21.33     25.00
   31.9890     32.52     32.85    -21.10     25.00
   31.9992     32.73     32.82    -20.86     25.00
   32.0094     32.56     32.80    -21.01     25.00
   32.0195     32.72     32.77    -20.82     25.00
   32.0297     33.42     32.75    -20.10     25.00
   32.0399     33.21     32.73    -20.29     25.00
   32.0500     33.60     32.70    -19.87     25.00
   32.0602     32.43     32.68    -21.02     25.00
   32.0704     32.68     32.66    -20.75     25.00
   32.0805     32.23     32.63    -21.17     25.00
   32.0907     33.10     32.61    -20.28     25.00
   32.1009     32.66     32.59    -20.70     25.00
   32.1110     32.85     32.57    -20.49     25.00
   32.1212     31.76     32.54    -21.55     25.00
   32.1313     32.46     32.52    -20.83     25.00
   32.1415     33.01     32.50    -20.26     25.00
   32.1517     31.79     32.48    -21.46     25.00
   32.1618     32.76     32.46    -20.47     25.00
   32.1720     32.40     32.44    -20.81     25.00
   32.1822     33.21     32.42    -19.98     25.00
   32.1923     32.50     32.40    -20.67     25.00
   32.2025     32.79     32.38    -20.36     25.00
   32.2127     32.79     32.36    -20.34     25.00
   32.2228     32.71     32.34    -20.40     25.00
   32.2330     33.03     32.32    -20.06     25.00
   32.2432     33.64     32.30    -19.43     25.00
   32.2533     32.48     32.28    -20.57     25.00
   32.2635     33.09     32.26    -19.94     25.00
   32.2737     32.15     32.24    -20.86     25.00
   32.2838     32.25     32.23    -20.75     25.00
   32.2940     33.87     32.21    -19.11     25.00
   32.3041     32.24     32.19    -20.72     25.00
   32.3143     32.40     32.17    -20.54     25.00
   32.3245     32.32     32.16    -20.61     25.00
   32.3346     33.15     32.14    -19.76     25.00
   32.3448     32.10     32.12    -20.79     25.00
   32.3550     32.28     32.10    -20.59     25.00
   32.3651     32.77     32.09    -20.09     25.00
   32.3753     32.23     32.07    -20.61     25.00
   32.3855     32.57     32.06    -20.26     25.00
   32.3956     31.66     32.04    -21.15     25.00
   32.4058     32.34     32.02    -20.45     25.00
   32.4160     32.18     32.01    -20.60     25.00
   32.4261     31.49     31.99    -21.27     25.00
   32.4363     32.63     31.98    -20.12     25.00
   32.4464     33.12     31.96    -19.61     25.00
   32.4566     32.13     31.95    -20.59     25.00
   32.4668     32.49     31.93    -20.21     25.00
   32.4769     32.92     31.92    -19.77     25.00
   32.4871     32.30     31.90    -20.37     25.00
   32.4973     32.34     31.89    -20.32     25.00
   32.5074     32.02     31.87    -20.62     25.00
   32.5176     33.26     31.86    -19.37     25.00
   32.5278     32.79     31.85    -19.83     25.00
   32.5379     33.01     31.83    -19.59     25.00
   32.5481     32.28     31.82    -20.31     25.00
   32.5583     32.57     31.80    -20.00     25.00
   32.5684     33.02     31.79    -19.54     25.00
   32.5786     31.98     31.78    -20.57     25.00
   32.5888     32.22     31.76    -20.31     25.00
   32.5989     32.69     31.75    -19.83     25.00
   32.6091     31.05     31.74    -21.46     25.00
   32.6192     31.96     31.73    -20.54     25.00
   32.6294     31.96     31.71    -20.52     25.00
   32.6396     32.23     31.70    -20.24     25.00
   32.6497     32.25     31.69    -20.21     25.00
   32.6599     32.49     31.67    -19.95     25.00
   32.6701     31.62     31.66    -20.81     25.00
   32.6802     32.20     31.65    -20.22     25.00
   32.6904     32.59     31.64    -19.82     25.00
   32.7006     31.35     31.62    -21.04     25.00
   32.7107     32.05     31.61    -20.33     25.00
   32.7209     32.20     31.60    -20.17     25.00
   32.7311     31.89     31.59    -20.47     25.00
   32.7412     31.63     31.57    -20.71     25.00
   32.7514     31.64     31.56    -20.69     25.00
   32.7615     32.48     31.55    -19.84     25.00
   32.7717     32.09     31.54    -20.22     25.00
   32.7819     32.20     31.53    -20.10     25.00
   32.7920     32.67     31.51    -19.61     25.00
   32.8022     31.74     31.50    -20.53     25.00
   32.8124     32.00     31.49    -20.26     25.00
   32.8225     32.01     31.48    -20.24     25.00
   32.8327     31.57     31.47    -20.67     25.00
   32.8429     32.26     31.45    -19.96     25.00
   32.8530     32.00     31.44    -20.21     25.00
   32.8632     32.24     31.43    -19.96     25.00
   32.8734     32.50     31.42    -19.69     25.00
   32.8835     32.12     31.41    -20.06     25.00
   32.8937     31.90     31.39    -20.26     25.00
   32.9039     32.52     31.38    -19.63     25.00
   32.9140     32.21     31.37    -19.93     25.00
   32.9242     32.74     31.36    -19.39     25.00
   32.9343     32.30     31.34    -19.81     25.00
   32.9445     32.05     31.33    -20.05     25.00
   32.9547     31.54     31.32    -20.55     25.00
   32.9648     32.54     31.31    -19.54     25.00
   32.9750     31.70     31.30    -20.37     25.00
   32.9852     31.95     31.28    -20.10     25.00
   32.9953     32.60     31.27    -19.44     25.00
   33.0055     32.12     31.26    -19.91     25.00
   33.0157     32.20     31.25    -19.82     25.00
   33.0258     33.40     31.23    -18.60     25.00
   33.0360     32.07     31.22    -19.92     25.00
   33.0462     32.62     31.21    -19.36     25.00
   33.0563     32.97     31.19    -18.99     25.00
   33.0665     32.41     31.18    -19.54     25.00
   33.0766     31.52     31.17    -20.42     25.00
   33.0868     32.73     31.16    -19.20     25.00
   33.0970     32.06     31.14    -19.85     25.00
   33.1071     32.09     31.13    -19.81     25.00
   33.1173     31.79     31.11    -20.09     25.00
   33.1275     32.22     31.10    -19.65     25.00
   33.1376     31.84     31.09    -20.02     25.00
   33.1478     32.17     31.07    -19.67     25.00
   33.1580     31.76     31.06    -20.07     25.00
   33.1681     31.30     31.05    -20.52     25.00
   33.1783     33.27     31.03    -18.53     25.00
   33.1885     32.21     31.02    -19.58     25.00
   33.1986     31.62     31.00    -20.15     25.00
   33.2088     32.66     30.99    -19.10     25.00
   33.2189     31.97     30.97    -19.77     25.00
   33.2291     32.18     30.96    -19.55     25.00
   33.2393     32.13     30.94    -19.58     25.00
   33.2494     32.09     30.93    -19.61     25.00
   33.2596     31.53     30.91    -20.15     25.00
   33.2698     32.66     30.90    -19.01     25.00
   33.2799     32.71     30.88    -18.94     25.00
   33.2901     32.02     30.87    -19.62     25.00
   33.3003     32.23     30.85    -19.39     25.00
   33.3104     32.29     30.84    -19.32     25.00
   33.3206     32.60     30.82    -18.99     25.00
   33.3308     32.93     30.80    -18.64     25.00
   33.3409     32.24     30.79    -19.32     25.00
   33.3511     32.76     30.77    -18.78     25.00
   33.3613     32.33     30.76    -19.20     25.00
   33.3714     32.80     30.74    -18.71     25.00
   33.3816     33.10     30.72    -18.39     25.00
   33.3917     32.63     30.70    -18.84     25.00
   33.4019     32.20     30.69    -19.26     25.00
   33.4121     33.01     30.67    -18.43     25.00
   33.4222     32.23     30.65    -19.19     25.00
   33.4324     31.76     30.64    -19.65     25.00
   33.4426     32.49     30.62    -18.90     25.00
   33.4527     32.11     30.60    -19.26     25.00
   33.4629     32.18     30.58    -19.17     25.00
   33.4731     32.67     30.56    -18.66     25.00
   33.4832     31.78     30.54    -19.53     25.00
   33.4934     31.40     30.53    -19.90     25.00
   33.5036     32.30     30.51    -18.98     25.00
   33.5137     32.51     30.49    -18.75     25.00
   33.5239     31.84     30.47    -19.40     25.00
   33.5340     30.90     30.45    -20.32     25.00
   33.5442     31.43     30.43    -19.77     25.00
   33.5544     31.87     30.41    -19.31     25.00
   33.5645     32.12     30.39    -19.04     25.00
   33.5747     31.38     30.37    -19.76     25.00
   33.5849     30.80     30.35    -20.32     25.00
   33.5950     31.97     30.33    -19.13     25.00
   33.6052     30.65     30.31    -20.43     25.00
   33.6154     30.68     30.29    -20.38     25.00
   33.6255     31.60     30.27    -19.44     25.00
   33.6357     31.27     30.25    -19.75     25.00
   33.6459     31.08     30.22    -19.91     25.00
   33.6560     31.05     30.20    -19.92     25.00
   33.6662     30.55     30.18    -20.40     25.00
   33.6764     30.64     30.16    -20.29     25.00
   33.6865     30.76     30.14    -20.15     25.00
   33.6967     30.88     30.12    -20.01     25.00
   33.7068     30.78     30.09    -20.08     25.00
   33.7170     31.41     30.07    -19.43     25.00
   33.7272     30.58     30.05    -20.24     25.00
   33.7373     29.95     30.03    -20.85     25.00
   33.7475     30.14     30.00    -20.63     25.00
   33.7577     29.40     29.98    -21.35     25.00
   33.7678     29.74     29.96    -20.99     25.00
   33.7780     30.48     29.93    -20.22     25.00
   33.7882     30.66     29.91    -20.02     25.00
   33.7983     29.18     29.89    -21.48     25.00
   33.8085     29.87     29.86    -20.76     25.00
   33.8187     29.00     29.84    -21.61     25.00
   33.8288     30.01     29.82    -20.58     25.00
   33.8390     29.85     29.79    -20.71     25.00
   33.8491     29.26     29.77    -21.28     25.00
   33.8593     29.32     29.74    -21.19     25.00
   33.8695     28.86     29.72    -21.63     25.00
   33.8796     29.88     29.69    -20.58     25.00
   33.8898     29.40     29.67    -21.04     25.00
   33.9000     29.42     29.64    -20.99     25.00
   33.9101     29.10     29.62    -21.29     25.00
   33.9203     29.38     29.59    -20.98     25.00
   33.9305     29.00     29.57    -21.34     25.00
   33.9406     28.87     29.54    -21.44     25.00
   33.9508     28.96     29.52    -21.33     25.00
   33.9610     28.84     29.49    -21.42     25.00
   33.9711     27.73     29.47    -22.51     25.00
   33.9813     28.84     29.44    -21.37     25.00
   33.9915     28.54     29.42    -21.65     25.00
   34.0016     29.06     29.39    -21.10     25.00
   34.0118     28.41     29.36    -21.72     25.00
   34.0219     28.65     29.34    -21.46     25.00
   34.0321     28.30     29.31    -21.78     25.00
   34.0423     28.30     29.28    -21.75     25.00
   34.0524     28.50     29.26    -21.53     25.00
   34.0626     26.71     29.23    -23.29     25.00
   34.0728     28.02     29.20    -21.95     25.00
   34.0829     28.07     29.18    -21.88     25.00
   34.0931     28.10     29.15    -21.82     25.00
   34.1033     27.78     29.12    -22.11     25.00
   34.1134     28.20     29.10    -21.67     25.00
   34.1236     28.61     29.07    -21.23     25.00
   34.1338     27.91     29.04    -21.90     25.00
   34.1439     27.78     29.02    -22.01     25.00
   34.1541     28.41     28.99    -21.35     25.00
   34.1642     28.40     28.96    -21.33     25.00
   34.1744     27.36     28.93    -22.34     25.00
   34.1846     27.88     28.91    -21.80     25.00
   34.1947     28.04     28.88    -21.61     25.00
   34.2049     27.48     28.85    -22.14     25.00
   34.2151     27.41     28.82    -22.18     25.00
   34.2252     27.65     28.80    -21.92     25.00
   34.2354     27.59     28.77    -21.95     25.00
   34.2456     27.39     28.74    -22.12     25.00
   34.2557     27.55     28.71    -21.93     25.00
   34.2659     27.12     28.69    -22.34     25.00
   34.2761     27.35     28.66    -22.08     25.00
   34.2862     27.05     28.63    -22.35     25.00
   34.2964     27.09     28.60    -22.28     25.00
   34.3066     26.76     28.58    -22.59     25.00
   34.3167     27.57     28.55    -21.75     25.00
   34.3269     27.68     28.52    -21.61     25.00
   34.3370     27.44     28.49    -21.82     25.00
   34.3472     27.91     28.46    -21.32     25.00
   34.3574     27.07     28.44    -22.14     25.00
   34.3675     27.28     28.41    -21.90     25.00
   34.3777     26.72     28.38    -22.43     25.00
   34.3879     27.23     28.35    -21.89     25.00
   34.3980     26.97     28.33    -22.13     25.00
   34.4082     27.79     28.30    -21.28     25.00
   34.4184     26.57     28.27    -22.47     25.00
   34.4285     27.26     28.24    -21.75     25.00
   34.4387     27.01     28.22    -21.98     25.00
   34.4489     26.88     28.19    -22.08     25.00
   34.4590     26.44     28.16    -22.49     25.00
   34.4692     26.74     28.13    -22.16     25.00
   34.4793     27.10     28.11    -21.78     25.00
   34.4895     27.41     28.08    -21.44     25.00
   34.4997     27.05     28.05    -21.77     25.00
   34.5098     26.17     28.02    -22.62     25.00
   34.5200     26.74     28.00    -22.03     25.00
   34.5302     27.46     27.97    -21.28     25.00
   34.5403     26.22     27.94    -22.49     25.00
   34.5505     26.27     27.92    -22.42     25.00
   34.5607     26.64     27.89    -22.02     25.00
   34.5708     26.79     27.86    -21.84     25.00
   34.5810     27.01     27.83    -21.59     25.00
   34.5912     26.99     27.81    -21.59     25.00
   34.6013     26.50     27.78    -22.05     25.00
   34.6115     26.87     27.75    -21.65     25.00
   34.6217     26.76     27.73    -21.74     25.00
   34.6318     27.13     27.70    -21.34     25.00
   34.6420     26.05     27.68    -22.40     25.00
   34.6521     26.25     27.65    -22.17     25.00
   34.6623     26.22     27.62    -22.17     25.00
   34.6725     26.90     27.60    -21.47     25.00
   34.6826     26.50     27.57    -21.84     25.00
   34.6928     26.27     27.55    -22.05     25.00
   34.7030     26.41     27.52    -21.88     25.00
   34.7131     25.91     27.49    -22.35     25.00
   34.7233     26.16     27.47    -22.08     25.00
   34.7335     26.13     27.44    -22.08     25.00
   34.7436     26.47     27.42    -21.72     25.00
   34.7538     26.79     27.39    -21.37     25.00
   34.7640     26.33     27.37    -21.81     25.00
   34.7741     26.25     27.34    -21.86     25.00
   34.7843     26.37     27.32    -21.72     25.00
   34.7944     26.07     27.29    -21.99     25.00
   34.8046     26.13     27.27    -21.91     25.00
   34.8148     26.12     27.24    -21.89     25.00
   34.8249     25.93     27.22    -22.06     25.00
   34.8351     26.60     27.20    -21.37     25.00
   34.8453     26.46     27.17    -21.48     25.00
   34.8554     26.46     27.15    -21.46     25.00
   34.8656     26.37     27.12    -21.52     25.00
   34.8758     26.16     27.10    -21.71     25.00
   34.8859     26.29     27.08    -21.56     25.00
   34.8961     25.95     27.05    -21.87     25.00
   34.9063     26.08     27.03    -21.72     25.00
   34.9164     26.46     27.01    -21.32     25.00
   34.9266     25.62     26.98    -22.13     25.00
   34.9367     26.32     26.96    -21.41     25.00
   34.9469     26.73     26.94    -20.98     25.00
   34.9571     25.57     26.92    -22.12     25.00
   34.9672     25.91     26.89    -21.75     25.00
   34.9774     25.66     26.87    -21.98     25.00
   34.9876     26.23     26.85    -21.39     25.00
   34.9977     26.06     26.83    -21.54     25.00
   35.0079     25.99     26.81    -21.59     25.00
   35.0181     25.47     26.79    -22.09     25.00
   35.0282     26.13     26.76    -21.40     25.00
   35.0384     25.40     26.74    -22.11     25.00
   35.0486     25.94     26.72    -21.55     25.00
   35.0587     26.07     26.70    -21.40     25.00
   35.0689     25.69     26.68    -21.76     25.00
   35.0791     26.01     26.66    -21.42     25.00
   35.0892     25.99     26.64    -21.42     25.00
   35.0994     25.10     26.62    -22.29     25.00
   35.1095     26.11     26.60    -21.26     25.00
   35.1197     25.37     26.58    -21.98     25.00
   35.1299     26.07     26.56    -21.26     25.00
   35.1400     26.29     26.54    -21.02     25.00
   35.1502     25.60     26.52    -21.69     25.00
   35.1604     25.97     26.50    -21.30     25.00
   35.1705     25.25     26.48    -22.00     25.00
   35.1807     25.48     26.46    -21.75     25.00
   35.1909     25.95     26.44    -21.26     25.00
   35.2010     25.82     26.42    -21.37     25.00
   35.2112     26.13     26.41    -21.05     25.00
   35.2214     25.15     26.39    -22.01     25.00
   35.2315     25.75     26.37    -21.39     25.00
   35.2417     26.02     26.35    -21.10     25.00
   35.2518     25.38     26.33    -21.72     25.00
   35.2620     25.68     26.32    -21.41     25.00
   35.2722     25.64     26.30    -21.43     25.00
   35.2823     25.05     26.28    -22.00     25.00
   35.2925     25.16     26.26    -21.87     25.00
   35.3027     25.27     26.25    -21.75     25.00
   35.3128     25.54     26.23    -21.46     25.00
   35.3230     25.23     26.21    -21.75     25.00
   35.3332     25.23     26.20    -21.74     25.00
   35.3433     25.15     26.18    -21.80     25.00
   35.3535     25.85     26.17    -21.09     25.00
   35.3637     25.57     26.15    -21.35     25.00
   35.3738     25.18     26.13    -21.72     25.00
   35.3840     25.75     26.12    -21.14     25.00
   35.3942     24.79     26.10    -22.08     25.00
   35.4043     24.93     26.09    -21.93     25.00
   35.4145     25.30     26.07    -21.54     25.00
   35.4246     25.44     26.06    -21.39     25.00
   35.4348     25.47     26.04    -21.34     25.00
   35.4450     25.69     26.03    -21.11     25.00
   35.4551     25.18     26.01    -21.60     25.00
   35.4653     25.70     26.00    -21.07     25.00
   35.4755     25.82     25.99    -20.94     25.00
   35.4856     25.72     25.97    -21.02     25.00
   35.4958     25.54     25.96    -21.19     25.00
   35.5060     25.21     25.94    -21.50     25.00
   35.5161     24.93     25.93    -21.77     25.00
   35.5263     25.36     25.92    -21.33     25.00
   35.5365     25.10     25.90    -21.57     25.00
   35.5466     25.24     25.89    -21.42     25.00
   35.5568     25.65     25.88    -21.00     25.00
   35.5669     25.53     25.87    -21.11     25.00
   35.5771     24.59     25.85    -22.03     25.00
   35.5873     26.05     25.84    -20.56     25.00
   35.5974     25.75     25.83    -20.85     25.00
   35.6076     24.77     25.82    -21.82     25.00
   35.6178     25.21     25.80    -21.36     25.00
   35.6279     25.27     25.79    -21.29     25.00
   35.6381     24.82     25.78    -21.73     25.00
   35.6483     25.47     25.77    -21.07     25.00
   35.6584     25.49     25.76    -21.04     25.00
   35.6686     24.38     25.75    -22.14     25.00
   35.6788     25.17     25.74    -21.34     25.00
   35.6889     25.04     25.72    -21.45     25.00
   35.6991     24.91     25.71    -21.57     25.00
   35.7093     25.60     25.70    -20.87     25.00
   35.7194     25.40     25.69    -21.06     25.00
   35.7296     25.45     25.68    -21.00     25.00
   35.7397     25.54     25.67    -20.90     25.00
   35.7499     25.45     25.66    -20.98     25.00
   35.7601     25.29     25.65    -21.13     25.00
   35.7702     25.01     25.64    -21.40     25.00
   35.7804     25.16     25.63    -21.24     25.00
   35.7906     25.09     25.62    -21.30     25.00
   35.8007     25.24     25.61    -21.14     25.00
   35.8109     25.09     25.60    -21.28     25.00
   35.8211     25.28     25.60    -21.09     25.00
   35.8312     24.94     25.59    -21.42     25.00
   35.8414     25.34     25.58    -21.01     25.00
   35.8516     25.37     25.57    -20.97     25.00
   35.8617     24.97     25.56    -21.36     25.00
   35.8719     25.20     25.55    -21.12     25.00
   35.8820     24.59     25.54    -21.72     25.00
   35.8922     25.02     25.53    -21.28     25.00
   35.9024     25.60     25.53    -20.70     25.00
   35.9125     25.02     25.52    -21.27     25.00
   35.9227     25.41     25.51    -20.87     25.00
   35.9329     24.42     25.50    -21.85     25.00
   35.9430     25.29     25.50    -20.98     25.00
   35.9532     25.32     25.49    -20.94     25.00
   35.9634     25.01     25.48    -21.24     25.00
   35.9735     25.16     25.47    -21.08     25.00
   35.9837     25.78     25.47    -20.46     25.00
   35.9939     24.88     25.46    -21.35     25.00
   36.0040     24.79     25.45    -21.43     25.00
   36.0142     25.32     25.44    -20.89     25.00
