 => TITLE: 
 => Data file name: C:\Users\stefano\Nextcloud2\uni\master-thesis\XRD\data\G306\G306--5-40-0.01-1000ms.xy
 => Instrm        :    1
 => Lambda(1&2)   :   1.54060  1.54060
 => Numb.of.points:      2951
 => Numb.of.peaks :         8
    2Theta     Yobs     Ycalc  Yobs-Ycal    Backg    Bragg     Posr  Intensity   FWHM    Eta
    6.0086     25.25     26.92    -22.55     24.00   18.7033      1.69     148.30  0.9385  0.3078
    6.0187     25.43     26.92    -22.38     24.00   20.4067      1.69      86.30  1.7496  0.3078
    6.0289     25.52     26.93    -22.29     24.00   22.5206      1.69     101.39  1.2999  0.3078
    6.0391     26.04     26.94    -21.78     24.00   28.5220      1.69      40.73  1.4315  0.3078
    6.0492     25.54     26.94    -22.29     24.00   30.0647      1.69      24.17  2.1277  0.3078
    6.0594     25.40     26.95    -22.43     24.00   33.3542      1.69      12.73  2.1277  0.3078
    6.0696     25.18     26.96    -22.66     24.00   17.3048      1.69      66.21  2.1277  0.3078
    6.0797     25.71     26.96    -22.14     24.00   19.8219      1.69     918.90 10.7071  0.3078
    6.0899     25.23     26.97    -22.63     24.00
    6.1001     25.56     26.98    -22.30     24.00
    6.1102     24.80     26.99    -23.07     24.00
    6.1204     25.03     26.99    -22.85     24.00
    6.1306     24.72     27.00    -23.16     24.00
    6.1407     24.52     27.01    -23.37     24.00
    6.1509     24.45     27.01    -23.45     24.00
    6.1611     25.06     27.02    -22.85     24.00
    6.1712     24.78     27.03    -23.13     24.00
    6.1814     24.64     27.04    -23.28     24.00
    6.1915     24.75     27.04    -23.18     24.00
    6.2017     24.69     27.05    -23.24     24.00
    6.2119     24.57     27.06    -23.37     24.00
    6.2220     24.85     27.07    -23.10     24.00
    6.2322     24.93     27.07    -23.03     24.00
    6.2424     24.97     27.08    -22.99     24.00
    6.2525     24.98     27.09    -22.99     24.00
    6.2627     25.32     27.10    -22.66     24.00
    6.2729     24.81     27.10    -23.18     24.00
    6.2830     24.98     27.11    -23.01     24.00
    6.2932     24.90     27.12    -23.10     24.00
    6.3034     25.61     27.13    -22.40     24.00
    6.3135     25.15     27.13    -22.87     24.00
    6.3237     25.25     27.14    -22.78     24.00
    6.3338     25.20     27.15    -22.83     24.00
    6.3440     24.96     27.16    -23.08     24.00
    6.3542     24.43     27.17    -23.62     24.00
    6.3643     24.52     27.17    -23.54     24.00
    6.3745     24.77     27.18    -23.29     24.00
    6.3847     24.45     27.19    -23.62     24.00
    6.3948     24.88     27.20    -23.20     24.00
    6.4050     25.68     27.20    -22.41     24.00
    6.4152     25.45     27.21    -22.65     24.00
    6.4253     25.08     27.22    -23.02     24.00
    6.4355     25.30     27.23    -22.81     24.00
    6.4457     25.20     27.24    -22.92     24.00
    6.4558     25.42     27.25    -22.71     24.00
    6.4660     25.67     27.25    -22.47     24.00
    6.4762     24.26     27.26    -23.89     24.00
    6.4863     25.96     27.27    -22.19     24.00
    6.4965     25.15     27.28    -23.01     24.00
    6.5066     24.84     27.29    -23.33     24.00
    6.5168     25.11     27.30    -23.07     24.00
    6.5270     25.23     27.30    -22.96     24.00
    6.5371     25.32     27.31    -22.88     24.00
    6.5473     25.12     27.32    -23.08     24.00
    6.5575     25.29     27.33    -22.92     24.00
    6.5676     25.65     27.34    -22.57     24.00
    6.5778     26.13     27.35    -22.10     24.00
    6.5880     25.62     27.36    -22.62     24.00
    6.5981     24.88     27.36    -23.37     24.00
    6.6083     24.88     27.37    -23.38     24.00
    6.6185     25.29     27.38    -22.98     24.00
    6.6286     25.53     27.39    -22.74     24.00
    6.6388     25.48     27.40    -22.80     24.00
    6.6489     25.83     27.41    -22.46     24.00
    6.6591     25.85     27.42    -22.45     24.00
    6.6693     25.63     27.43    -22.68     24.00
    6.6794     25.66     27.43    -22.66     24.00
    6.6896     25.10     27.44    -23.23     24.00
    6.6998     25.85     27.45    -22.49     24.00
    6.7099     26.42     27.46    -21.93     24.00
    6.7201     25.92     27.47    -22.43     24.00
    6.7303     25.74     27.48    -22.62     24.00
    6.7404     26.33     27.49    -22.04     24.00
    6.7506     25.13     27.50    -23.25     24.00
    6.7608     26.00     27.51    -22.39     24.00
    6.7709     25.67     27.52    -22.73     24.00
    6.7811     26.06     27.53    -22.35     24.00
    6.7913     25.65     27.54    -22.77     24.00
    6.8014     26.63     27.55    -21.80     24.00
    6.8116     26.95     27.55    -21.49     24.00
    6.8217     26.78     27.56    -21.67     24.00
    6.8319     25.88     27.57    -22.58     24.00
    6.8421     25.51     27.58    -22.96     24.00
    6.8522     25.88     27.59    -22.60     24.00
    6.8624     26.18     27.60    -22.31     24.00
    6.8726     26.06     27.61    -22.44     24.00
    6.8827     26.40     27.62    -22.11     24.00
    6.8929     26.20     27.63    -22.32     24.00
    6.9031     25.58     27.64    -22.95     24.00
    6.9132     25.68     27.65    -22.86     24.00
    6.9234     25.94     27.66    -22.61     24.00
    6.9336     26.11     27.67    -22.45     24.00
    6.9437     26.42     27.68    -22.15     24.00
    6.9539     25.93     27.69    -22.65     24.00
    6.9640     26.31     27.70    -22.28     24.00
    6.9742     26.63     27.71    -21.97     24.00
    6.9844     25.70     27.72    -22.91     24.00
    6.9945     26.74     27.73    -21.88     24.00
    7.0047     26.38     27.74    -22.25     24.00
    7.0149     26.62     27.75    -22.02     24.00
    7.0250     27.14     27.76    -21.51     24.00
    7.0352     25.87     27.77    -22.79     24.00
    7.0454     27.15     27.78    -21.52     24.00
    7.0555     25.88     27.80    -22.80     24.00
    7.0657     26.36     27.81    -22.33     24.00
    7.0759     26.18     27.82    -22.52     24.00
    7.0860     27.04     27.83    -21.67     24.00
    7.0962     26.65     27.84    -22.07     24.00
    7.1064     26.35     27.85    -22.38     24.00
    7.1165     26.59     27.86    -22.15     24.00
    7.1267     26.43     27.87    -22.32     24.00
    7.1368     26.59     27.88    -22.17     24.00
    7.1470     26.66     27.89    -22.12     24.00
    7.1572     27.40     27.90    -21.39     24.00
    7.1673     26.52     27.91    -22.28     24.00
    7.1775     26.72     27.92    -22.09     24.00
    7.1877     27.83     27.94    -20.99     24.00
    7.1978     27.37     27.95    -21.46     24.00
    7.2080     26.53     27.96    -22.31     24.00
    7.2182     27.26     27.97    -21.59     24.00
    7.2283     26.41     27.98    -22.45     24.00
    7.2385     27.19     27.99    -21.69     24.00
    7.2487     27.10     28.00    -21.79     24.00
    7.2588     27.36     28.01    -21.54     24.00
    7.2690     25.74     28.03    -23.17     24.00
    7.2791     27.24     28.04    -21.68     24.00
    7.2893     28.33     28.05    -20.60     24.00
    7.2995     27.25     28.06    -21.70     24.00
    7.3096     27.54     28.07    -21.42     24.00
    7.3198     27.76     28.08    -21.21     24.00
    7.3300     26.82     28.10    -22.16     24.00
    7.3401     27.49     28.11    -21.50     24.00
    7.3503     27.02     28.12    -21.98     24.00
    7.3605     27.25     28.13    -21.77     24.00
    7.3706     27.42     28.14    -21.61     24.00
    7.3808     27.60     28.16    -21.44     24.00
    7.3910     27.43     28.17    -21.62     24.00
    7.4011     27.91     28.18    -21.15     24.00
    7.4113     27.92     28.19    -21.16     24.00
    7.4215     26.86     28.20    -22.23     24.00
    7.4316     26.63     28.22    -22.47     24.00
    7.4418     26.87     28.23    -22.24     24.00
    7.4519     27.63     28.24    -21.50     24.00
    7.4621     27.63     28.25    -21.51     24.00
    7.4723     27.56     28.27    -21.59     24.00
    7.4824     27.77     28.28    -21.39     24.00
    7.4926     27.49     28.29    -21.69     24.00
    7.5028     27.93     28.30    -21.26     24.00
    7.5129     27.54     28.32    -21.66     24.00
    7.5231     26.72     28.33    -22.49     24.00
    7.5333     28.21     28.34    -21.02     24.00
    7.5434     27.85     28.36    -21.39     24.00
    7.5536     28.27     28.37    -20.98     24.00
    7.5638     27.95     28.38    -21.32     24.00
    7.5739     27.82     28.39    -21.46     24.00
    7.5841     28.48     28.41    -20.81     24.00
    7.5942     28.26     28.42    -21.04     24.00
    7.6044     27.82     28.43    -21.50     24.00
    7.6146     27.41     28.45    -21.92     24.00
    7.6247     28.29     28.46    -21.05     24.00
    7.6349     28.15     28.47    -21.21     24.00
    7.6451     27.97     28.49    -21.40     24.00
    7.6552     28.00     28.50    -21.38     24.00
    7.6654     27.99     28.51    -21.41     24.00
    7.6756     27.87     28.53    -21.54     24.00
    7.6857     28.01     28.54    -21.42     24.00
    7.6959     27.66     28.56    -21.78     24.00
    7.7061     28.13     28.57    -21.32     24.00
    7.7162     28.04     28.58    -21.43     24.00
    7.7264     27.57     28.60    -21.91     24.00
    7.7365     28.40     28.61    -21.09     24.00
    7.7467     28.52     28.62    -20.99     24.00
    7.7569     28.76     28.64    -20.76     24.00
    7.7670     28.81     28.65    -20.73     24.00
    7.7772     28.60     28.67    -20.95     24.00
    7.7874     27.07     28.68    -22.50     24.00
    7.7975     28.46     28.70    -21.12     24.00
    7.8077     29.41     28.71    -20.18     24.00
    7.8179     27.74     28.72    -21.87     24.00
    7.8280     28.16     28.74    -21.46     24.00
    7.8382     29.35     28.75    -20.29     24.00
    7.8484     28.12     28.77    -21.53     24.00
    7.8585     29.24     28.78    -20.43     24.00
    7.8687     29.69     28.80    -19.99     24.00
    7.8789     29.75     28.81    -19.95     24.00
    7.8890     29.44     28.83    -20.27     24.00
    7.8992     28.39     28.84    -21.34     24.00
    7.9093     29.11     28.86    -20.63     24.00
    7.9195     29.09     28.87    -20.67     24.00
    7.9297     29.43     28.89    -20.34     24.00
    7.9398     28.85     28.90    -20.94     24.00
    7.9500     29.39     28.92    -20.41     24.00
    7.9602     30.09     28.93    -19.73     24.00
    7.9703     28.89     28.95    -20.94     24.00
    7.9805     29.15     28.96    -20.70     24.00
    7.9907     29.05     28.98    -20.81     24.00
    8.0008     29.07     28.99    -20.81     24.00
    8.0110     29.20     29.01    -20.69     24.00
    8.0212     29.48     29.03    -20.43     24.00
    8.0313     28.82     29.04    -21.10     24.00
    8.0415     29.45     29.06    -20.49     24.00
    8.0516     29.87     29.07    -20.09     24.00
    8.0618     29.61     29.09    -20.36     24.00
    8.0720     29.45     29.10    -20.54     24.00
    8.0821     29.63     29.12    -20.37     24.00
    8.0923     29.19     29.14    -20.83     24.00
    8.1025     28.91     29.15    -21.13     24.00
    8.1126     29.43     29.17    -20.62     24.00
    8.1228     28.83     29.19    -21.24     24.00
    8.1330     30.39     29.20    -19.70     24.00
    8.1431     30.35     29.22    -19.75     24.00
    8.1533     30.18     29.23    -19.94     24.00
    8.1635     29.98     29.25    -20.16     24.00
    8.1736     30.66     29.27    -19.49     24.00
    8.1838     29.50     29.28    -20.67     24.00
    8.1940     30.12     29.30    -20.07     24.00
    8.2041     29.67     29.32    -20.53     24.00
    8.2143     28.83     29.34    -21.39     24.00
    8.2244     29.90     29.35    -20.34     24.00
    8.2346     29.29     29.37    -20.96     24.00
    8.2448     29.64     29.39    -20.63     24.00
    8.2549     30.41     29.40    -19.88     24.00
    8.2651     30.21     29.42    -20.09     24.00
    8.2753     30.15     29.44    -20.17     24.00
    8.2854     30.04     29.46    -20.30     24.00
    8.2956     30.10     29.47    -20.26     24.00
    8.3058     29.15     29.49    -21.22     24.00
    8.3159     30.39     29.51    -20.00     24.00
    8.3261     31.23     29.53    -19.18     24.00
    8.3363     30.60     29.54    -19.83     24.00
    8.3464     30.16     29.56    -20.29     24.00
    8.3566     30.94     29.58    -19.52     24.00
    8.3667     30.82     29.60    -19.66     24.00
    8.3769     30.54     29.62    -19.96     24.00
    8.3871     30.73     29.63    -19.79     24.00
    8.3972     29.95     29.65    -20.59     24.00
    8.4074     31.11     29.67    -19.44     24.00
    8.4176     30.95     29.69    -19.62     24.00
    8.4277     30.01     29.71    -20.58     24.00
    8.4379     30.10     29.72    -20.51     24.00
    8.4481     31.19     29.74    -19.44     24.00
    8.4582     29.66     29.76    -20.99     24.00
    8.4684     30.88     29.78    -19.78     24.00
    8.4786     31.30     29.80    -19.38     24.00
    8.4887     30.51     29.82    -20.19     24.00
    8.4989     31.41     29.84    -19.31     24.00
    8.5091     30.79     29.86    -19.95     24.00
    8.5192     30.40     29.88    -20.36     24.00
    8.5294     31.01     29.89    -19.77     24.00
    8.5395     31.09     29.91    -19.71     24.00
    8.5497     29.60     29.93    -21.22     24.00
    8.5599     31.32     29.95    -19.52     24.00
    8.5700     30.91     29.97    -19.95     24.00
    8.5802     30.46     29.99    -20.42     24.00
    8.5904     30.57     30.01    -20.33     24.00
    8.6005     31.45     30.03    -19.46     24.00
    8.6107     30.68     30.05    -20.25     24.00
    8.6209     31.29     30.07    -19.66     24.00
    8.6310     30.70     30.09    -20.27     24.00
    8.6412     30.61     30.11    -20.38     24.00
    8.6514     31.47     30.13    -19.54     24.00
    8.6615     31.46     30.15    -19.57     24.00
    8.6717     30.53     30.17    -20.53     24.00
    8.6818     31.74     30.19    -19.34     24.00
    8.6920     30.77     30.21    -20.33     24.00
    8.7022     30.79     30.23    -20.33     24.00
    8.7123     31.68     30.25    -19.46     24.00
    8.7225     32.27     30.27    -18.89     24.00
    8.7327     32.28     30.29    -18.90     24.00
    8.7428     31.55     30.32    -19.65     24.00
    8.7530     30.96     30.34    -20.26     24.00
    8.7632     31.14     30.36    -20.10     24.00
    8.7733     31.85     30.38    -19.41     24.00
    8.7835     31.88     30.40    -19.40     24.00
    8.7937     30.69     30.42    -20.61     24.00
    8.8038     32.29     30.44    -19.04     24.00
    8.8140     32.32     30.46    -19.03     24.00
    8.8242     31.88     30.48    -19.49     24.00
    8.8343     31.88     30.51    -19.51     24.00
    8.8445     32.10     30.53    -19.31     24.00
    8.8546     31.65     30.55    -19.78     24.00
    8.8648     31.63     30.57    -19.83     24.00
    8.8750     32.13     30.59    -19.35     24.00
    8.8851     32.31     30.62    -19.19     24.00
    8.8953     31.98     30.64    -19.54     24.00
    8.9055     32.36     30.66    -19.18     24.00
    8.9156     30.97     30.68    -20.60     24.00
    8.9258     31.32     30.70    -20.27     24.00
    8.9360     31.76     30.73    -19.85     24.00
    8.9461     31.74     30.75    -19.89     24.00
    8.9563     31.84     30.77    -19.82     24.00
    8.9665     31.72     30.79    -19.96     24.00
    8.9766     31.69     30.82    -20.01     24.00
    8.9868     32.22     30.84    -19.50     24.00
    8.9969     32.03     30.86    -19.72     24.00
    9.0071     31.32     30.89    -20.45     24.00
    9.0173     32.07     30.91    -19.72     24.00
    9.0274     31.86     30.93    -19.96     24.00
    9.0376     32.37     30.96    -19.47     24.00
    9.0478     32.85     30.98    -19.01     24.00
    9.0579     32.85     31.00    -19.04     24.00
    9.0681     32.27     31.03    -19.64     24.00
    9.0783     32.46     31.05    -19.47     24.00
    9.0884     31.68     31.07    -20.28     24.00
    9.0986     32.21     31.10    -19.77     24.00
    9.1088     31.98     31.12    -20.03     24.00
    9.1189     32.66     31.15    -19.37     24.00
    9.1291     32.77     31.17    -19.28     24.00
    9.1393     32.36     31.19    -19.72     24.00
    9.1494     32.83     31.22    -19.27     24.00
    9.1596     33.07     31.24    -19.06     24.00
    9.1697     32.39     31.27    -19.76     24.00
    9.1799     33.02     31.29    -19.16     24.00
    9.1901     32.60     31.32    -19.60     24.00
    9.2002     32.96     31.34    -19.27     24.00
    9.2104     32.38     31.37    -19.87     24.00
    9.2206     32.15     31.39    -20.13     24.00
    9.2307     32.97     31.42    -19.33     24.00
    9.2409     32.15     31.44    -20.18     24.00
    9.2511     32.52     31.47    -19.83     24.00
    9.2612     33.30     31.49    -19.08     24.00
    9.2714     32.98     31.52    -19.42     24.00
    9.2816     32.14     31.54    -20.29     24.00
    9.2917     33.85     31.57    -18.60     24.00
    9.3019     33.10     31.59    -19.38     24.00
    9.3120     32.62     31.62    -19.88     24.00
    9.3222     33.43     31.65    -19.10     24.00
    9.3324     32.98     31.67    -19.58     24.00
    9.3425     33.15     31.70    -19.43     24.00
    9.3527     32.77     31.72    -19.84     24.00
    9.3629     32.84     31.75    -19.79     24.00
    9.3730     32.99     31.78    -19.67     24.00
    9.3832     33.01     31.80    -19.68     24.00
    9.3934     33.53     31.83    -19.18     24.00
    9.4035     33.44     31.86    -19.30     24.00
    9.4137     32.82     31.88    -19.95     24.00
    9.4239     34.34     31.91    -18.45     24.00
    9.4340     33.64     31.94    -19.18     24.00
    9.4442     33.32     31.96    -19.53     24.00
    9.4544     33.19     31.99    -19.69     24.00
    9.4645     33.40     32.02    -19.50     24.00
    9.4747     33.95     32.05    -18.98     24.00
    9.4848     32.77     32.07    -20.19     24.00
    9.4950     33.29     32.10    -19.70     24.00
    9.5052     33.59     32.13    -19.42     24.00
    9.5153     33.91     32.16    -19.13     24.00
    9.5255     33.52     32.19    -19.55     24.00
    9.5357     33.69     32.21    -19.41     24.00
    9.5458     33.66     32.24    -19.47     24.00
    9.5560     33.34     32.27    -19.81     24.00
    9.5662     33.27     32.30    -19.91     24.00
    9.5763     33.74     32.33    -19.47     24.00
    9.5865     33.16     32.36    -20.08     24.00
    9.5967     34.74     32.38    -18.53     24.00
    9.6068     34.18     32.41    -19.12     24.00
    9.6170     33.21     32.44    -20.12     24.00
    9.6271     33.24     32.47    -20.11     24.00
    9.6373     34.26     32.50    -19.12     24.00
    9.6475     33.52     32.53    -19.89     24.00
    9.6576     33.35     32.56    -20.09     24.00
    9.6678     33.95     32.59    -19.52     24.00
    9.6780     33.68     32.62    -19.82     24.00
    9.6881     33.62     32.65    -19.91     24.00
    9.6983     34.60     32.68    -18.96     24.00
    9.7085     33.91     32.71    -19.68     24.00
    9.7186     33.85     32.74    -19.77     24.00
    9.7288     33.85     32.77    -19.80     24.00
    9.7390     34.15     32.80    -19.53     24.00
    9.7491     34.84     32.83    -18.87     24.00
    9.7593     33.73     32.86    -20.01     24.00
    9.7694     34.27     32.89    -19.50     24.00
    9.7796     33.33     32.92    -20.47     24.00
    9.7898     34.02     32.95    -19.81     24.00
    9.7999     34.29     32.98    -19.57     24.00
    9.8101     34.84     33.01    -19.05     24.00
    9.8203     33.94     33.04    -19.98     24.00
    9.8304     34.38     33.07    -19.58     24.00
    9.8406     34.18     33.10    -19.81     24.00
    9.8508     34.10     33.13    -19.92     24.00
    9.8609     33.93     33.17    -20.12     24.00
    9.8711     33.83     33.20    -20.25     24.00
    9.8813     35.05     33.23    -19.06     24.00
    9.8914     33.60     33.26    -20.54     24.00
    9.9016     34.74     33.29    -19.44     24.00
    9.9118     34.60     33.32    -19.61     24.00
    9.9219     34.79     33.36    -19.45     24.00
    9.9321     34.21     33.39    -20.06     24.00
    9.9422     34.73     33.42    -19.58     24.00
    9.9524     34.95     33.45    -19.39     24.00
    9.9626     35.02     33.49    -19.35     24.00
    9.9727     35.02     33.52    -19.38     24.00
    9.9829     35.16     33.55    -19.28     24.00
    9.9931     34.70     33.59    -19.77     24.00
   10.0032     34.84     33.62    -19.66     24.00
   10.0134     33.60     33.65    -20.94     24.00
   10.0236     35.29     33.68    -19.28     24.00
   10.0337     34.71     33.72    -19.89     24.00
   10.0439     34.46     33.75    -20.18     24.00
   10.0541     35.23     33.79    -19.44     24.00
   10.0642     34.78     33.82    -19.92     24.00
   10.0744     34.73     33.85    -20.01     24.00
   10.0845     34.60     33.89    -20.17     24.00
   10.0947     35.21     33.92    -19.59     24.00
   10.1049     35.73     33.95    -19.11     24.00
   10.1150     34.66     33.99    -20.21     24.00
   10.1252     35.02     34.02    -19.89     24.00
   10.1354     34.99     34.06    -19.95     24.00
   10.1455     35.32     34.09    -19.66     24.00
   10.1557     35.13     34.13    -19.88     24.00
   10.1659     34.69     34.16    -20.36     24.00
   10.1760     35.63     34.20    -19.45     24.00
   10.1862     35.30     34.23    -19.82     24.00
   10.1964     34.14     34.27    -21.01     24.00
   10.2065     35.49     34.30    -19.70     24.00
   10.2167     34.79     34.34    -20.43     24.00
   10.2269     35.54     34.37    -19.72     24.00
   10.2370     34.96     34.41    -20.33     24.00
   10.2472     35.57     34.45    -19.76     24.00
   10.2573     35.41     34.48    -19.96     24.00
   10.2675     35.15     34.52    -20.25     24.00
   10.2777     35.64     34.55    -19.80     24.00
   10.2878     35.27     34.59    -20.20     24.00
   10.2980     35.12     34.63    -20.39     24.00
   10.3082     35.49     34.66    -20.06     24.00
   10.3183     36.10     34.70    -19.48     24.00
   10.3285     35.83     34.74    -19.79     24.00
   10.3387     35.62     34.77    -20.04     24.00
   10.3488     35.88     34.81    -19.82     24.00
   10.3590     35.68     34.85    -20.05     24.00
   10.3692     35.33     34.89    -20.44     24.00
   10.3793     35.34     34.92    -20.47     24.00
   10.3895     36.02     34.96    -19.83     24.00
   10.3996     35.48     35.00    -20.40     24.00
   10.4098     36.26     35.04    -19.66     24.00
   10.4200     35.66     35.07    -20.30     24.00
   10.4301     35.88     35.11    -20.12     24.00
   10.4403     35.99     35.15    -20.04     24.00
   10.4505     35.41     35.19    -20.66     24.00
   10.4606     36.42     35.23    -19.69     24.00
   10.4708     35.52     35.27    -20.63     24.00
   10.4810     35.93     35.31    -20.26     24.00
   10.4911     35.98     35.34    -20.25     24.00
   10.5013     35.74     35.38    -20.53     24.00
   10.5115     36.01     35.42    -20.30     24.00
   10.5216     35.03     35.46    -21.32     24.00
   10.5318     36.47     35.50    -19.91     24.00
   10.5420     37.01     35.54    -19.41     24.00
   10.5521     36.80     35.58    -19.66     24.00
   10.5623     36.69     35.62    -19.81     24.00
   10.5724     36.82     35.66    -19.72     24.00
   10.5826     37.40     35.70    -19.18     24.00
   10.5928     35.52     35.74    -21.10     24.00
   10.6029     36.98     35.78    -19.68     24.00
   10.6131     36.52     35.82    -20.18     24.00
   10.6233     36.32     35.86    -20.42     24.00
   10.6334     36.05     35.90    -20.74     24.00
   10.6436     37.13     35.94    -19.70     24.00
   10.6538     35.69     35.98    -21.18     24.00
   10.6639     37.24     36.02    -19.67     24.00
   10.6741     36.95     36.07    -20.00     24.00
   10.6843     36.53     36.11    -20.46     24.00
   10.6944     37.63     36.15    -19.40     24.00
   10.7046     36.71     36.19    -20.36     24.00
   10.7147     36.83     36.23    -20.29     24.00
   10.7249     37.27     36.27    -19.89     24.00
   10.7351     37.00     36.32    -20.20     24.00
   10.7452     37.60     36.36    -19.64     24.00
   10.7554     36.84     36.40    -20.44     24.00
   10.7656     36.92     36.44    -20.41     24.00
   10.7757     36.95     36.48    -20.42     24.00
   10.7859     36.63     36.53    -20.78     24.00
   10.7961     37.65     36.57    -19.80     24.00
   10.8062     37.75     36.61    -19.75     24.00
   10.8164     36.59     36.66    -20.95     24.00
   10.8266     37.36     36.70    -20.22     24.00
   10.8367     37.02     36.74    -20.61     24.00
   10.8469     37.82     36.79    -19.85     24.00
   10.8571     36.95     36.83    -20.76     24.00
   10.8672     36.97     36.87    -20.79     24.00
   10.8774     37.62     36.92    -20.18     24.00
   10.8875     37.34     36.96    -20.50     24.00
   10.8977     37.63     37.01    -20.26     24.00
   10.9079     37.54     37.05    -20.39     24.00
   10.9180     37.44     37.09    -20.54     24.00
   10.9282     37.77     37.14    -20.25     24.00
   10.9384     37.55     37.18    -20.52     24.00
   10.9485     37.07     37.23    -21.04     24.00
   10.9587     38.36     37.27    -19.80     24.00
   10.9689     37.70     37.32    -20.50     24.00
   10.9790     37.23     37.36    -21.02     24.00
   10.9892     37.96     37.41    -20.33     24.00
   10.9994     37.49     37.45    -20.85     24.00
   11.0095     37.24     37.50    -21.14     24.00
   11.0197     38.30     37.55    -20.13     24.00
   11.0298     37.61     37.59    -20.87     24.00
   11.0400     38.07     37.64    -20.45     24.00
   11.0502     38.48     37.68    -20.09     24.00
   11.0603     36.79     37.73    -21.82     24.00
   11.0705     37.69     37.78    -20.97     24.00
   11.0807     36.93     37.82    -21.78     24.00
   11.0908     37.43     37.87    -21.32     24.00
   11.1010     38.54     37.92    -20.26     24.00
   11.1112     38.16     37.96    -20.69     24.00
   11.1213     38.68     38.01    -20.22     24.00
   11.1315     38.22     38.06    -20.72     24.00
   11.1417     38.24     38.11    -20.75     24.00
   11.1518     38.03     38.15    -21.01     24.00
   11.1620     37.89     38.20    -21.20     24.00
   11.1722     37.62     38.25    -21.51     24.00
   11.1823     38.76     38.30    -20.42     24.00
   11.1925     38.65     38.35    -20.58     24.00
   11.2026     38.88     38.39    -20.40     24.00
   11.2128     38.13     38.44    -21.20     24.00
   11.2230     38.50     38.49    -20.87     24.00
   11.2331     37.62     38.54    -21.80     24.00
   11.2433     39.10     38.59    -20.37     24.00
   11.2535     38.35     38.64    -21.17     24.00
   11.2636     37.54     38.69    -22.03     24.00
   11.2738     39.29     38.74    -20.33     24.00
   11.2840     39.24     38.79    -20.43     24.00
   11.2941     38.02     38.84    -21.70     24.00
   11.3043     38.94     38.88    -20.83     24.00
   11.3145     38.43     38.94    -21.39     24.00
   11.3246     38.29     38.98    -21.58     24.00
   11.3348     39.76     39.04    -20.16     24.00
   11.3449     38.21     39.09    -21.76     24.00
   11.3551     39.71     39.14    -20.31     24.00
   11.3653     39.17     39.19    -20.90     24.00
   11.3754     38.86     39.24    -21.26     24.00
   11.3856     39.07     39.29    -21.10     24.00
   11.3958     39.48     39.34    -20.74     24.00
   11.4059     39.56     39.39    -20.71     24.00
   11.4161     39.17     39.44    -21.16     24.00
   11.4263     39.55     39.49    -20.83     24.00
   11.4364     39.20     39.54    -21.23     24.00
   11.4466     38.93     39.60    -21.55     24.00
   11.4568     38.28     39.65    -22.25     24.00
   11.4669     39.10     39.70    -21.48     24.00
   11.4771     39.00     39.75    -21.64     24.00
   11.4873     39.94     39.81    -20.75     24.00
   11.4974     38.86     39.86    -21.88     24.00
   11.5076     39.96     39.91    -20.83     24.00
   11.5177     39.86     39.96    -20.99     24.00
   11.5279     39.14     40.02    -21.76     24.00
   11.5381     38.94     40.07    -22.01     24.00
   11.5482     39.46     40.12    -21.55     24.00
   11.5584     39.73     40.18    -21.33     24.00
   11.5686     39.46     40.23    -21.65     24.00
   11.5787     39.16     40.28    -22.01     24.00
   11.5889     39.96     40.34    -21.26     24.00
   11.5991     39.98     40.39    -21.30     24.00
   11.6092     40.44     40.45    -20.89     24.00
   11.6194     39.65     40.50    -21.73     24.00
   11.6296     39.01     40.55    -22.43     24.00
   11.6397     40.10     40.61    -21.39     24.00
   11.6499     40.09     40.66    -21.46     24.00
   11.6600     41.20     40.72    -20.40     24.00
   11.6702     40.36     40.77    -21.30     24.00
   11.6804     40.35     40.83    -21.36     24.00
   11.6905     40.06     40.88    -21.71     24.00
   11.7007     41.45     40.94    -20.37     24.00
   11.7109     39.90     41.00    -21.98     24.00
   11.7210     40.35     41.05    -21.59     24.00
   11.7312     40.80     41.11    -21.19     24.00
   11.7414     40.48     41.16    -21.57     24.00
   11.7515     40.55     41.22    -21.55     24.00
   11.7617     39.96     41.28    -22.20     24.00
   11.7719     41.34     41.33    -20.88     24.00
   11.7820     40.77     41.39    -21.50     24.00
   11.7922     41.33     41.45    -21.00     24.00
   11.8023     40.76     41.50    -21.63     24.00
   11.8125     40.59     41.56    -21.85     24.00
   11.8227     41.14     41.62    -21.36     24.00
   11.8328     40.49     41.68    -22.07     24.00
   11.8430     40.27     41.73    -22.35     24.00
   11.8532     41.01     41.79    -21.66     24.00
   11.8633     41.43     41.85    -21.30     24.00
   11.8735     40.43     41.91    -22.36     24.00
   11.8837     41.01     41.97    -21.84     24.00
   11.8938     40.87     42.02    -22.04     24.00
   11.9040     40.63     42.08    -22.34     24.00
   11.9142     41.14     42.14    -21.88     24.00
   11.9243     41.91     42.20    -21.17     24.00
   11.9345     41.87     42.26    -21.27     24.00
   11.9447     41.30     42.32    -21.90     24.00
   11.9548     40.70     42.38    -22.56     24.00
   11.9650     41.81     42.44    -21.51     24.00
   11.9751     41.23     42.50    -22.15     24.00
   11.9853     41.80     42.56    -21.64     24.00
   11.9955     41.37     42.62    -22.13     24.00
   12.0056     41.62     42.68    -21.94     24.00
   12.0158     42.01     42.74    -21.61     24.00
   12.0260     41.91     42.80    -21.77     24.00
   12.0361     42.24     42.86    -21.50     24.00
   12.0463     42.56     42.92    -21.24     24.00
   12.0565     42.18     42.98    -21.68     24.00
   12.0666     42.21     43.04    -21.71     24.00
   12.0768     41.28     43.10    -22.70     24.00
   12.0870     42.32     43.16    -21.73     24.00
   12.0971     41.98     43.22    -22.13     24.00
   12.1073     42.34     43.29    -21.83     24.00
   12.1174     41.95     43.35    -22.28     24.00
   12.1276     42.85     43.41    -21.44     24.00
   12.1378     41.77     43.47    -22.59     24.00
   12.1479     42.54     43.53    -21.88     24.00
   12.1581     42.76     43.60    -21.72     24.00
   12.1683     42.88     43.66    -21.66     24.00
   12.1784     43.34     43.72    -21.26     24.00
   12.1886     43.32     43.78    -21.35     24.00
   12.1988     42.40     43.85    -22.33     24.00
   12.2089     42.80     43.91    -21.99     24.00
   12.2191     42.82     43.97    -22.04     24.00
   12.2293     44.02     44.04    -20.90     24.00
   12.2394     42.90     44.10    -22.08     24.00
   12.2496     41.74     44.16    -23.31     24.00
   12.2598     43.25     44.23    -21.86     24.00
   12.2699     42.63     44.29    -22.55     24.00
   12.2801     43.05     44.36    -22.19     24.00
   12.2902     42.13     44.42    -23.17     24.00
   12.3004     43.49     44.49    -21.88     24.00
   12.3106     43.19     44.55    -22.24     24.00
   12.3207     43.07     44.61    -22.43     24.00
   12.3309     43.49     44.68    -22.07     24.00
   12.3411     43.87     44.75    -21.76     24.00
   12.3512     42.65     44.81    -23.04     24.00
   12.3614     43.52     44.88    -22.24     24.00
   12.3716     44.11     44.94    -21.72     24.00
   12.3817     43.67     45.01    -22.22     24.00
   12.3919     44.78     45.07    -21.18     24.00
   12.4021     44.26     45.14    -21.76     24.00
   12.4122     43.71     45.21    -22.38     24.00
   12.4224     43.43     45.27    -22.73     24.00
   12.4325     44.46     45.34    -21.76     24.00
   12.4427     43.82     45.41    -22.47     24.00
   12.4529     43.45     45.47    -22.91     24.00
   12.4630     44.08     45.54    -22.34     24.00
   12.4732     44.58     45.61    -21.91     24.00
   12.4834     44.42     45.67    -22.14     24.00
   12.4935     43.93     45.74    -22.70     24.00
   12.5037     44.74     45.81    -21.95     24.00
   12.5139     44.26     45.88    -22.50     24.00
   12.5240     43.60     45.95    -23.23     24.00
   12.5342     44.71     46.01    -22.19     24.00
   12.5444     44.63     46.08    -22.34     24.00
   12.5545     44.92     46.15    -22.11     24.00
   12.5647     45.02     46.22    -22.08     24.00
   12.5749     45.77     46.29    -21.40     24.00
   12.5850     45.36     46.36    -21.88     24.00
   12.5952     45.51     46.43    -21.80     24.00
   12.6053     45.06     46.49    -22.32     24.00
   12.6155     45.81     46.56    -21.64     24.00
   12.6257     45.82     46.63    -21.70     24.00
   12.6358     45.61     46.70    -21.98     24.00
   12.6460     46.49     46.77    -21.17     24.00
   12.6562     45.09     46.84    -22.64     24.00
   12.6663     45.05     46.91    -22.75     24.00
   12.6765     46.21     46.98    -21.66     24.00
   12.6867     45.90     47.06    -22.04     24.00
   12.6968     45.94     47.13    -22.07     24.00
   12.7070     46.02     47.20    -22.06     24.00
   12.7172     46.26     47.27    -21.89     24.00
   12.7273     45.59     47.34    -22.63     24.00
   12.7375     45.96     47.41    -22.33     24.00
   12.7476     45.48     47.48    -22.88     24.00
   12.7578     47.46     47.55    -20.98     24.00
   12.7680     46.13     47.62    -22.38     24.00
   12.7781     45.05     47.70    -23.53     24.00
   12.7883     46.84     47.77    -21.81     24.00
   12.7985     47.02     47.84    -21.71     24.00
   12.8086     46.43     47.91    -22.37     24.00
   12.8188     47.02     47.99    -21.85     24.00
   12.8290     46.26     48.06    -22.68     24.00
   12.8391     47.02     48.13    -22.00     24.00
   12.8493     46.88     48.20    -22.21     24.00
   12.8595     47.17     48.28    -21.99     24.00
   12.8696     46.51     48.35    -22.72     24.00
   12.8798     46.87     48.42    -22.44     24.00
   12.8900     46.24     48.50    -23.14     24.00
   12.9001     45.70     48.57    -23.76     24.00
   12.9103     47.68     48.65    -21.85     24.00
   12.9204     47.26     48.72    -22.34     24.00
   12.9306     47.47     48.79    -22.21     24.00
   12.9408     47.51     48.87    -22.24     24.00
   12.9509     46.32     48.94    -23.51     24.00
   12.9611     46.10     49.02    -23.80     24.00
   12.9713     47.14     49.09    -22.84     24.00
   12.9814     47.82     49.17    -22.23     24.00
   12.9916     48.10     49.24    -22.03     24.00
   13.0018     47.36     49.32    -22.84     24.00
   13.0119     48.66     49.39    -21.62     24.00
   13.0221     48.27     49.47    -22.08     24.00
   13.0323     49.59     49.55    -20.84     24.00
   13.0424     46.98     49.62    -23.53     24.00
   13.0526     47.74     49.70    -22.84     24.00
   13.0627     48.14     49.77    -22.52     24.00
   13.0729     48.40     49.85    -22.33     24.00
   13.0831     47.48     49.93    -23.33     24.00
   13.0932     48.76     50.00    -22.13     24.00
   13.1034     47.33     50.08    -23.63     24.00
   13.1136     48.82     50.16    -22.22     24.00
   13.1237     48.39     50.23    -22.73     24.00
   13.1339     48.27     50.31    -22.93     24.00
   13.1441     48.86     50.39    -22.41     24.00
   13.1542     48.82     50.47    -22.53     24.00
   13.1644     50.12     50.55    -21.31     24.00
   13.1746     49.34     50.62    -22.17     24.00
   13.1847     48.86     50.70    -22.73     24.00
   13.1949     49.60     50.78    -22.06     24.00
   13.2051     48.75     50.86    -22.99     24.00
   13.2152     48.13     50.94    -23.69     24.00
   13.2254     50.04     51.02    -21.86     24.00
   13.2355     49.20     51.09    -22.78     24.00
   13.2457     50.10     51.17    -21.96     24.00
   13.2559     49.77     51.25    -22.37     24.00
   13.2660     50.29     51.33    -21.93     24.00
   13.2762     48.95     51.41    -23.35     24.00
   13.2864     50.51     51.49    -21.87     24.00
   13.2965     50.64     51.57    -21.82     24.00
   13.3067     49.85     51.65    -22.69     24.00
   13.3169     50.03     51.73    -22.59     24.00
   13.3270     50.33     51.81    -22.37     24.00
   13.3372     49.74     51.89    -23.04     24.00
   13.3474     51.21     51.97    -21.65     24.00
   13.3575     50.68     52.05    -22.26     24.00
   13.3677     49.92     52.14    -23.10     24.00
   13.3778     51.41     52.22    -21.69     24.00
   13.3880     50.65     52.30    -22.53     24.00
   13.3982     51.00     52.38    -22.26     24.00
   13.4083     51.45     52.46    -21.89     24.00
   13.4185     51.42     52.54    -22.01     24.00
   13.4287     51.83     52.62    -21.68     24.00
   13.4388     50.07     52.71    -23.52     24.00
   13.4490     51.24     52.79    -22.43     24.00
   13.4592     50.98     52.87    -22.77     24.00
   13.4693     51.24     52.95    -22.60     24.00
   13.4795     51.28     53.04    -22.64     24.00
   13.4897     53.01     53.12    -20.99     24.00
   13.4998     52.22     53.20    -21.87     24.00
   13.5100     51.22     53.29    -22.95     24.00
   13.5201     52.54     53.37    -21.71     24.00
   13.5303     52.64     53.45    -21.70     24.00
   13.5405     52.24     53.54    -22.18     24.00
   13.5506     52.70     53.62    -21.80     24.00
   13.5608     53.05     53.70    -21.54     24.00
   13.5710     52.19     53.79    -22.48     24.00
   13.5811     53.15     53.87    -21.61     24.00
   13.5913     53.20     53.96    -21.64     24.00
   13.6015     54.40     54.04    -20.52     24.00
   13.6116     52.90     54.12    -22.11     24.00
   13.6218     54.27     54.21    -20.82     24.00
   13.6320     52.99     54.30    -22.19     24.00
   13.6421     53.91     54.38    -21.35     24.00
   13.6523     53.27     54.47    -22.08     24.00
   13.6625     52.63     54.55    -22.81     24.00
   13.6726     52.92     54.64    -22.60     24.00
   13.6828     53.07     54.72    -22.54     24.00
   13.6929     53.09     54.81    -22.60     24.00
   13.7031     53.84     54.89    -21.94     24.00
   13.7133     53.10     54.98    -22.77     24.00
   13.7234     53.72     55.07    -22.23     24.00
   13.7336     54.95     55.15    -21.09     24.00
   13.7438     54.40     55.24    -21.73     24.00
   13.7539     54.94     55.33    -21.27     24.00
   13.7641     55.17     55.42    -21.13     24.00
   13.7743     53.86     55.50    -22.53     24.00
   13.7844     55.52     55.59    -20.95     24.00
   13.7946     54.99     55.68    -21.57     24.00
   13.8048     54.87     55.77    -21.78     24.00
   13.8149     54.79     55.85    -21.95     24.00
   13.8251     55.23     55.94    -21.60     24.00
   13.8352     55.13     56.03    -21.78     24.00
   13.8454     55.01     56.12    -21.99     24.00
   13.8556     55.61     56.21    -21.48     24.00
   13.8657     54.98     56.30    -22.20     24.00
   13.8759     54.64     56.39    -22.63     24.00
   13.8861     55.59     56.47    -21.77     24.00
   13.8962     55.33     56.56    -22.12     24.00
   13.9064     56.19     56.65    -21.35     24.00
   13.9166     56.46     56.74    -21.17     24.00
   13.9267     54.91     56.83    -22.81     24.00
   13.9369     57.20     56.92    -20.61     24.00
   13.9471     57.51     57.01    -20.39     24.00
   13.9572     56.07     57.10    -21.92     24.00
   13.9674     56.04     57.19    -22.04     24.00
   13.9776     56.49     57.29    -21.68     24.00
   13.9877     56.80     57.38    -21.46     24.00
   13.9979     57.59     57.47    -20.76     24.00
   14.0080     56.15     57.56    -22.29     24.00
   14.0182     56.65     57.65    -21.88     24.00
   14.0284     57.47     57.74    -21.16     24.00
   14.0385     57.24     57.83    -21.48     24.00
   14.0487     55.91     57.93    -22.90     24.00
   14.0589     56.95     58.02    -21.95     24.00
   14.0690     58.08     58.11    -20.91     24.00
   14.0792     58.27     58.20    -20.82     24.00
   14.0894     58.30     58.30    -20.88     24.00
   14.0995     58.68     58.39    -20.59     24.00
   14.1097     57.19     58.48    -22.18     24.00
   14.1199     58.31     58.58    -21.15     24.00
   14.1300     57.62     58.67    -21.93     24.00
   14.1402     58.82     58.76    -20.83     24.00
   14.1503     58.43     58.86    -21.31     24.00
   14.1605     57.70     58.95    -22.14     24.00
   14.1707     59.07     59.05    -20.86     24.00
   14.1808     58.26     59.14    -21.76     24.00
   14.1910     58.49     59.24    -21.63     24.00
   14.2012     60.04     59.33    -20.18     24.00
   14.2113     59.13     59.43    -21.18     24.00
   14.2215     59.61     59.52    -20.80     24.00
   14.2317     59.21     59.62    -21.29     24.00
   14.2418     60.71     59.71    -19.89     24.00
   14.2520     59.98     59.81    -20.71     24.00
   14.2622     60.39     59.91    -20.40     24.00
   14.2723     60.00     60.00    -20.89     24.00
   14.2825     60.40     60.10    -20.58     24.00
   14.2927     59.95     60.20    -21.13     24.00
   14.3028     59.98     60.29    -21.20     24.00
   14.3130     60.23     60.39    -21.05     24.00
   14.3231     59.22     60.49    -22.15     24.00
   14.3333     60.54     60.59    -20.93     24.00
   14.3435     60.85     60.69    -20.72     24.00
   14.3536     60.46     60.79    -21.21     24.00
   14.3638     61.45     60.89    -20.32     24.00
   14.3740     61.49     60.98    -20.38     24.00
   14.3841     60.59     61.08    -21.38     24.00
   14.3943     60.65     61.18    -21.42     24.00
   14.4045     61.65     61.28    -20.52     24.00
   14.4146     61.56     61.38    -20.71     24.00
   14.4248     61.22     61.48    -21.15     24.00
   14.4350     62.16     61.59    -20.31     24.00
   14.4451     61.66     61.69    -20.91     24.00
   14.4553     62.01     61.79    -20.66     24.00
   14.4654     62.83     61.89    -19.94     24.00
   14.4756     62.49     61.99    -20.39     24.00
   14.4858     61.93     62.10    -21.05     24.00
   14.4959     62.54     62.20    -20.54     24.00
   14.5061     62.34     62.30    -20.84     24.00
   14.5163     63.14     62.40    -20.15     24.00
   14.5264     64.21     62.51    -19.18     24.00
   14.5366     62.33     62.61    -21.17     24.00
   14.5468     62.60     62.72    -21.00     24.00
   14.5569     64.15     62.82    -19.55     24.00
   14.5671     64.11     62.93    -19.70     24.00
   14.5773     63.72     63.03    -20.20     24.00
   14.5874     63.20     63.14    -20.82     24.00
   14.5976     63.80     63.24    -20.33     24.00
   14.6078     63.70     63.35    -20.53     24.00
   14.6179     63.86     63.46    -20.48     24.00
   14.6281     64.79     63.56    -19.66     24.00
   14.6382     65.88     63.67    -18.68     24.00
   14.6484     64.27     63.78    -20.39     24.00
   14.6586     64.90     63.89    -19.87     24.00
   14.6687     64.12     64.00    -20.76     24.00
   14.6789     66.18     64.11    -18.81     24.00
   14.6891     65.01     64.22    -20.09     24.00
   14.6992     65.13     64.33    -20.08     24.00
   14.7094     65.09     64.44    -20.23     24.00
   14.7196     65.55     64.55    -19.88     24.00
   14.7297     66.05     64.66    -19.49     24.00
   14.7399     65.78     64.77    -19.88     24.00
   14.7501     67.16     64.89    -18.61     24.00
   14.7602     66.78     65.00    -19.10     24.00
   14.7704     65.99     65.11    -20.01     24.00
   14.7805     65.87     65.22    -20.24     24.00
   14.7907     66.43     65.34    -19.79     24.00
   14.8009     66.52     65.46    -19.82     24.00
   14.8110     67.57     65.57    -18.88     24.00
   14.8212     67.40     65.69    -19.17     24.00
   14.8314     67.02     65.80    -19.67     24.00
   14.8415     67.01     65.92    -19.79     24.00
   14.8517     66.74     66.04    -20.18     24.00
   14.8619     66.99     66.16    -20.05     24.00
   14.8720     68.28     66.27    -18.88     24.00
   14.8822     67.34     66.39    -19.94     24.00
   14.8924     69.23     66.51    -18.17     24.00
   14.9025     67.87     66.63    -19.65     24.00
   14.9127     67.29     66.76    -20.35     24.00
   14.9229     68.64     66.88    -19.12     24.00
   14.9330     68.79     67.00    -19.09     24.00
   14.9432     67.10     67.12    -20.91     24.00
   14.9533     68.66     67.25    -19.47     24.00
   14.9635     68.77     67.37    -19.48     24.00
   14.9737     69.52     67.50    -18.86     24.00
   14.9838     69.57     67.62    -18.93     24.00
   14.9940     69.98     67.75    -18.65     24.00
   15.0042     69.73     67.87    -19.03     24.00
   15.0143     69.95     68.00    -18.94     24.00
   15.0245     71.34     68.13    -17.67     24.00
   15.0347     71.53     68.26    -17.61     24.00
   15.0448     71.22     68.39    -18.05     24.00
   15.0550     70.41     68.52    -18.99     24.00
   15.0652     71.68     68.65    -17.86     24.00
   15.0753     71.36     68.78    -18.31     24.00
   15.0855     71.25     68.92    -18.55     24.00
   15.0956     71.58     69.05    -18.35     24.00
   15.1058     70.92     69.18    -19.15     24.00
   15.1160     70.87     69.32    -19.33     24.00
   15.1261     70.71     69.46    -19.63     24.00
   15.1363     72.03     69.59    -18.45     24.00
   15.1465     72.35     69.73    -18.27     24.00
   15.1566     72.07     69.87    -18.68     24.00
   15.1668     72.95     70.01    -17.94     24.00
   15.1770     71.01     70.15    -20.02     24.00
   15.1871     72.04     70.29    -19.13     24.00
   15.1973     70.68     70.43    -20.64     24.00
   15.2075     72.80     70.58    -18.66     24.00
   15.2176     73.01     70.72    -18.59     24.00
   15.2278     73.03     70.87    -18.72     24.00
   15.2380     73.43     71.01    -18.47     24.00
   15.2481     72.96     71.16    -19.08     24.00
   15.2583     74.17     71.31    -18.02     24.00
   15.2684     72.77     71.45    -19.57     24.00
   15.2786     72.46     71.60    -20.03     24.00
   15.2888     74.56     71.76    -18.08     24.00
   15.2989     72.93     71.91    -19.86     24.00
   15.3091     75.13     72.06    -17.81     24.00
   15.3193     72.88     72.22    -20.22     24.00
   15.3294     74.96     72.37    -18.29     24.00
   15.3396     76.18     72.53    -17.23     24.00
   15.3498     74.61     72.68    -18.96     24.00
   15.3599     75.88     72.84    -17.85     24.00
   15.3701     76.13     73.00    -17.76     24.00
   15.3803     75.38     73.16    -18.67     24.00
   15.3904     76.56     73.32    -17.65     24.00
   15.4006     75.15     73.49    -19.22     24.00
   15.4107     76.38     73.65    -18.15     24.00
   15.4209     75.68     73.81    -19.02     24.00
   15.4311     77.35     73.98    -17.52     24.00
   15.4412     76.70     74.15    -18.33     24.00
   15.4514     76.80     74.32    -18.40     24.00
   15.4616     76.46     74.49    -18.91     24.00
   15.4717     78.10     74.66    -17.44     24.00
   15.4819     76.56     74.83    -19.15     24.00
   15.4921     76.73     75.00    -19.16     24.00
   15.5022     76.50     75.18    -19.56     24.00
   15.5124     77.98     75.35    -18.26     24.00
   15.5226     77.91     75.53    -18.51     24.00
   15.5327     79.25     75.71    -17.34     24.00
   15.5429     79.55     75.89    -17.22     24.00
   15.5530     78.16     76.07    -18.79     24.00
   15.5632     78.18     76.25    -18.96     24.00
   15.5734     79.51     76.44    -17.81     24.00
   15.5835     78.40     76.62    -19.10     24.00
   15.5937     79.85     76.81    -17.84     24.00
   15.6039     79.11     77.00    -18.77     24.00
   15.6140     79.02     77.18    -19.05     24.00
   15.6242     80.07     77.37    -18.19     24.00
   15.6344     78.68     77.57    -19.77     24.00
   15.6445     80.51     77.76    -18.13     24.00
   15.6547     79.74     77.95    -19.10     24.00
   15.6649     80.79     78.15    -18.24     24.00
   15.6750     80.14     78.34    -19.09     24.00
   15.6852     81.00     78.54    -18.43     24.00
   15.6954     81.07     78.74    -18.56     24.00
   15.7055     82.12     78.94    -17.71     24.00
   15.7157     81.32     79.15    -18.71     24.00
   15.7258     80.97     79.35    -19.26     24.00
   15.7360     81.60     79.55    -18.84     24.00
   15.7462     81.50     79.76    -19.15     24.00
   15.7563     82.72     79.97    -18.13     24.00
   15.7665     83.16     80.18    -17.90     24.00
   15.7767     82.93     80.39    -18.34     24.00
   15.7868     82.47     80.60    -19.01     24.00
   15.7970     82.77     80.81    -18.93     24.00
   15.8072     83.32     81.03    -18.59     24.00
   15.8173     82.39     81.25    -19.74     24.00
   15.8275     83.51     81.46    -18.84     24.00
   15.8377     84.58     81.68    -17.99     24.00
   15.8478     84.35     81.90    -18.44     24.00
   15.8580     83.59     82.12    -19.42     24.00
   15.8681     84.82     82.35    -18.41     24.00
   15.8783     84.17     82.57    -19.29     24.00
   15.8885     84.26     82.80    -19.42     24.00
   15.8986     84.15     83.02    -19.76     24.00
   15.9088     83.68     83.25    -20.46     24.00
   15.9190     85.64     83.48    -18.73     24.00
   15.9291     84.93     83.71    -19.67     24.00
   15.9393     86.91     83.95    -17.92     24.00
   15.9495     83.99     84.18    -21.08     24.00
   15.9596     86.55     84.42    -18.75     24.00
   15.9698     85.15     84.65    -20.39     24.00
   15.9800     86.99     84.89    -18.79     24.00
   15.9901     86.60     85.13    -19.41     24.00
   16.0003     88.31     85.37    -17.95     24.00
   16.0105     87.00     85.61    -19.50     24.00
   16.0206     87.99     85.86    -18.75     24.00
   16.0308     85.57     86.10    -21.41     24.00
   16.0409     88.84     86.34    -18.39     24.00
   16.0511     87.45     86.59    -20.03     24.00
   16.0613     88.80     86.84    -18.92     24.00
   16.0714     89.36     87.09    -18.61     24.00
   16.0816     89.24     87.34    -18.98     24.00
   16.0918     88.97     87.59    -19.51     24.00
   16.1019     88.76     87.84    -19.97     24.00
   16.1121     89.81     88.10    -19.17     24.00
   16.1223     90.25     88.35    -18.99     24.00
   16.1324     89.35     88.61    -20.14     24.00
   16.1426     90.19     88.87    -19.56     24.00
   16.1528     88.75     89.12    -21.26     24.00
   16.1629     89.34     89.38    -20.93     24.00
   16.1731     90.32     89.64    -20.21     24.00
   16.1832     91.46     89.90    -19.33     24.00
   16.1934     90.45     90.17    -20.60     24.00
   16.2036     91.37     90.43    -19.94     24.00
   16.2137     91.24     90.69    -20.34     24.00
   16.2239     92.67     90.96    -19.17     24.00
   16.2341     92.32     91.22    -19.79     24.00
   16.2442     91.70     91.49    -20.67     24.00
   16.2544     91.49     91.76    -21.15     24.00
   16.2646     91.40     92.03    -21.51     24.00
   16.2747     92.07     92.29    -21.11     24.00
   16.2849     91.61     92.56    -21.84     24.00
   16.2951     92.40     92.84    -21.32     24.00
   16.3052     92.15     93.10    -21.84     24.00
   16.3154     92.53     93.38    -21.73     24.00
   16.3256     93.56     93.65    -20.97     24.00
   16.3357     93.56     93.92    -21.25     24.00
   16.3459     94.94     94.20    -20.14     24.00
   16.3560     94.55     94.47    -20.80     24.00
   16.3662     94.63     94.74    -21.00     24.00
   16.3764     95.65     95.02    -20.25     24.00
   16.3865     94.04     95.29    -22.14     24.00
   16.3967     93.99     95.57    -22.46     24.00
   16.4069     95.21     95.85    -21.52     24.00
   16.4170     96.53     96.12    -20.48     24.00
   16.4272     96.48     96.40    -20.80     24.00
   16.4374     95.64     96.68    -21.92     24.00
   16.4475     97.08     96.95    -20.76     24.00
   16.4577     94.01     97.23    -24.10     24.00
   16.4679     95.73     97.51    -22.66     24.00
   16.4780     94.82     97.78    -23.85     24.00
   16.4882     97.40     98.06    -21.55     24.00
   16.4983     97.39     98.34    -21.83     24.00
   16.5085     97.52     98.62    -21.98     24.00
   16.5187     97.47     98.89    -22.31     24.00
   16.5288     99.45     99.17    -20.60     24.00
   16.5390     98.09     99.45    -22.24     24.00
   16.5492     96.70     99.72    -23.91     24.00
   16.5593     98.91    100.00    -21.97     24.00
   16.5695     98.53    100.28    -22.63     24.00
   16.5797     98.48    100.55    -22.96     24.00
   16.5898     99.47    100.83    -22.24     24.00
   16.6000    100.34    101.10    -21.65     24.00
   16.6102     99.34    101.38    -22.92     24.00
   16.6203    100.66    101.65    -21.87     24.00
   16.6305    101.73    101.92    -21.08     24.00
   16.6407    100.93    102.20    -22.15     24.00
   16.6508    100.55    102.47    -22.80     24.00
   16.6610    102.17    102.74    -21.45     24.00
   16.6711    100.74    103.01    -23.15     24.00
   16.6813    101.72    103.28    -22.44     24.00
   16.6915    102.80    103.54    -21.63     24.00
   16.7016    102.63    103.81    -22.06     24.00
   16.7118    101.48    104.08    -23.48     24.00
   16.7220    103.04    104.34    -22.19     24.00
   16.7321    103.95    104.61    -21.54     24.00
   16.7423    102.82    104.87    -22.93     24.00
   16.7525    104.65    105.13    -21.37     24.00
   16.7626    103.90    105.39    -22.38     24.00
   16.7728    102.29    105.65    -24.25     24.00
   16.7830    105.83    105.91    -20.96     24.00
   16.7931    104.73    106.16    -22.32     24.00
   16.8033    104.85    106.42    -22.45     24.00
   16.8134    106.16    106.67    -21.40     24.00
   16.8236    105.23    106.92    -22.58     24.00
   16.8338    106.41    107.17    -21.65     24.00
   16.8439    105.48    107.42    -22.83     24.00
   16.8541    105.78    107.67    -22.77     24.00
   16.8643    104.35    107.91    -24.45     24.00
   16.8744    108.33    108.16    -20.71     24.00
   16.8846    105.52    108.40    -23.76     24.00
   16.8948    106.29    108.64    -23.23     24.00
   16.9049    106.55    108.87    -23.21     24.00
   16.9151    106.54    109.11    -23.45     24.00
   16.9253    107.46    109.34    -22.77     24.00
   16.9354    106.99    109.57    -23.47     24.00
   16.9456    109.09    109.80    -21.60     24.00
   16.9558    109.25    110.03    -21.66     24.00
   16.9659    109.25    110.25    -21.89     24.00
   16.9761    106.81    110.47    -24.55     24.00
   16.9862    108.18    110.69    -23.40     24.00
   16.9964    108.88    110.91    -22.91     24.00
   17.0066    108.34    111.13    -23.67     24.00
   17.0167    109.53    111.34    -22.69     24.00
   17.0269    109.20    111.55    -23.23     24.00
   17.0371    108.07    111.76    -24.57     24.00
   17.0472    110.59    111.96    -22.25     24.00
   17.0574    109.82    112.16    -23.23     24.00
   17.0676    110.01    112.36    -23.24     24.00
   17.0777    110.02    112.56    -23.42     24.00
   17.0879    111.18    112.76    -22.46     24.00
   17.0981    110.50    112.95    -23.33     24.00
   17.1082    110.60    113.14    -23.42     24.00
   17.1184    111.27    113.32    -22.94     24.00
   17.1285    111.02    113.51    -23.37     24.00
   17.1387    108.57    113.69    -26.00     24.00
   17.1489    112.22    113.87    -22.53     24.00
   17.1590    111.25    114.05    -23.68     24.00
   17.1692    110.12    114.22    -24.98     24.00
   17.1794    111.84    114.39    -23.44     24.00
   17.1895    112.85    114.56    -22.60     24.00
   17.1997    112.56    114.73    -23.05     24.00
   17.2099    113.10    114.89    -22.68     24.00
   17.2200    111.02    115.06    -24.92     24.00
   17.2302    113.54    115.22    -22.56     24.00
   17.2404    114.73    115.37    -21.53     24.00
   17.2505    113.98    115.53    -22.43     24.00
   17.2607    113.71    115.68    -22.86     24.00
   17.2709    114.01    115.84    -22.71     24.00
   17.2810    112.54    115.99    -24.33     24.00
   17.2912    114.71    116.13    -22.31     24.00
   17.3013    115.32    116.28    -21.84     24.00
   17.3115    116.20    116.43    -21.11     24.00
   17.3217    115.82    116.57    -21.63     24.00
   17.3318    117.77    116.71    -19.83     24.00
   17.3420    116.94    116.85    -20.80     24.00
   17.3522    115.77    116.99    -22.11     24.00
   17.3623    117.00    117.13    -21.02     24.00
   17.3725    116.45    117.27    -21.71     24.00
   17.3827    116.11    117.41    -22.19     24.00
   17.3928    116.96    117.55    -21.48     24.00
   17.4030    116.20    117.69    -22.38     24.00
   17.4132    116.30    117.83    -22.42     24.00
   17.4233    120.57    117.97    -18.29     24.00
   17.4335    117.40    118.11    -21.60     24.00
   17.4436    119.99    118.26    -19.15     24.00
   17.4538    119.80    118.40    -19.49     24.00
   17.4640    119.40    118.55    -20.03     24.00
   17.4741    120.80    118.70    -18.78     24.00
   17.4843    120.28    118.85    -19.45     24.00
   17.4945    120.69    119.00    -19.20     24.00
   17.5046    120.07    119.16    -19.97     24.00
   17.5148    121.33    119.32    -18.87     24.00
   17.5250    119.44    119.49    -20.93     24.00
   17.5351    120.66    119.65    -19.88     24.00
   17.5453    120.94    119.83    -19.77     24.00
   17.5555    120.48    120.01    -20.41     24.00
   17.5656    120.90    120.20    -20.18     24.00
   17.5758    124.91    120.39    -16.36     24.00
   17.5859    122.48    120.59    -18.99     24.00
   17.5961    122.90    120.80    -18.78     24.00
   17.6063    124.52    121.01    -17.38     24.00
   17.6164    124.45    121.23    -17.67     24.00
   17.6266    123.99    121.47    -18.36     24.00
   17.6368    124.95    121.71    -17.65     24.00
   17.6469    125.77    121.96    -17.08     24.00
   17.6571    125.63    122.23    -17.48     24.00
   17.6673    126.94    122.51    -16.45     24.00
   17.6774    125.85    122.80    -17.83     24.00
   17.6876    126.03    123.10    -17.95     24.00
   17.6978    128.52    123.42    -15.78     24.00
   17.7079    129.23    123.74    -15.40     24.00
   17.7181    126.62    124.09    -18.36     24.00
   17.7283    128.24    124.46    -17.10     24.00
   17.7384    127.68    124.83    -18.04     24.00
   17.7486    128.94    125.23    -17.17     24.00
   17.7587    129.76    125.64    -16.77     24.00
   17.7689    129.71    126.08    -17.25     24.00
   17.7791    130.46    126.53    -16.96     24.00
   17.7892    131.38    127.00    -16.51     24.00
   17.7994    131.89    127.50    -16.50     24.00
   17.8096    133.05    128.02    -15.86     24.00
   17.8197    132.21    128.56    -17.23     24.00
   17.8299    133.82    129.13    -16.19     24.00
   17.8401    134.18    129.72    -16.42     24.00
   17.8502    134.79    130.33    -16.42     24.00
   17.8604    135.91    130.97    -15.94     24.00
   17.8706    132.94    131.64    -19.58     24.00
   17.8807    135.28    132.33    -17.93     24.00
   17.8909    135.80    133.05    -18.14     24.00
   17.9010    136.82    133.80    -17.87     24.00
   17.9112    138.68    134.59    -16.79     24.00
   17.9214    137.24    135.40    -19.04     24.00
   17.9315    138.71    136.24    -18.41     24.00
   17.9417    140.19    137.11    -17.81     24.00
   17.9519    140.02    138.02    -18.88     24.00
   17.9620    139.30    138.95    -20.54     24.00
   17.9722    142.04    139.92    -18.77     24.00
   17.9824    144.23    140.93    -17.59     24.00
   17.9925    144.57    141.96    -18.28     24.00
   18.0027    145.10    143.04    -18.82     24.00
   18.0129    146.43    144.15    -18.60     24.00
   18.0230    146.88    145.28    -19.28     24.00
   18.0332    148.45    146.46    -18.89     24.00
   18.0434    147.92    147.67    -20.63     24.00
   18.0535    147.99    148.90    -21.80     24.00
   18.0637    150.77    150.19    -20.30     24.00
   18.0738    151.66    151.49    -20.71     24.00
   18.0840    150.98    152.84    -22.75     24.00
   18.0942    153.33    154.23    -21.78     24.00
   18.1043    153.66    155.63    -22.86     24.00
   18.1145    155.53    157.09    -22.44     24.00
   18.1247    158.29    158.57    -21.17     24.00
   18.1348    160.25    160.08    -20.71     24.00
   18.1450    156.30    161.63    -26.21     24.00
   18.1552    160.38    163.21    -23.72     24.00
   18.1653    160.42    164.81    -25.27     24.00
   18.1755    161.64    166.45    -25.69     24.00
   18.1857    163.20    168.12    -25.81     24.00
   18.1958    164.26    169.80    -26.43     24.00
   18.2060    165.16    171.53    -27.25     24.00
   18.2161    171.79    173.26    -22.35     24.00
   18.2263    169.48    175.03    -26.44     24.00
   18.2365    171.89    176.83    -25.82     24.00
   18.2466    175.99    178.63    -23.52     24.00
   18.2568    175.20    180.46    -26.15     24.00
   18.2670    176.28    182.32    -26.92     24.00
   18.2771    180.98    184.17    -24.07     24.00
   18.2873    181.24    186.05    -25.69     24.00
   18.2975    179.76    187.94    -29.06     24.00
   18.3076    186.63    189.82    -24.08     24.00
   18.3178    186.39    191.73    -26.23     24.00
   18.3280    187.30    193.65    -27.23     24.00
   18.3381    191.92    195.55    -24.51     24.00
   18.3483    191.85    197.46    -26.50     24.00
   18.3585    193.91    199.38    -26.35     24.00
   18.3686    198.34    201.27    -23.81     24.00
   18.3788    195.88    203.17    -28.17     24.00
   18.3889    200.10    205.04    -25.83     24.00
   18.3991    205.07    206.92    -22.73     24.00
   18.4093    206.73    208.78    -22.94     24.00
   18.4194    206.96    210.60    -24.53     24.00
   18.4296    212.28    212.42    -21.03     24.00
   18.4398    214.35    214.22    -20.75     24.00
   18.4499    212.17    215.96    -24.68     24.00
   18.4601    218.34    217.69    -20.24     24.00
   18.4703    220.17    219.39    -20.10     24.00
   18.4804    220.26    221.03    -21.65     24.00
   18.4906    223.65    222.64    -19.87     24.00
   18.5008    226.32    224.21    -18.77     24.00
   18.5109    224.41    225.71    -22.19     24.00
   18.5211    230.49    227.18    -17.57     24.00
   18.5312    230.74    228.57    -18.72     24.00
   18.5414    232.52    229.93    -18.29     24.00
   18.5516    232.69    231.21    -19.41     24.00
   18.5617    236.42    232.42    -16.89     24.00
   18.5719    239.99    233.58    -14.47     24.00
   18.5821    237.65    234.66    -17.89     24.00
   18.5922    239.51    235.66    -17.03     24.00
   18.6024    241.83    236.59    -15.64     24.00
   18.6126    242.60    237.43    -15.72     24.00
   18.6227    243.74    238.19    -15.34     24.00
   18.6329    245.32    238.88    -14.44     24.00
   18.6431    244.77    239.47    -15.59     24.00
   18.6532    246.51    239.97    -14.35     24.00
   18.6634    246.43    240.39    -14.85     24.00
   18.6736    246.81    240.72    -14.79     24.00
   18.6837    248.37    240.95    -13.46     24.00
   18.6939    245.75    241.09    -16.23     24.00
   18.7040    247.46    241.14    -14.56     24.00
   18.7142    249.98    241.10    -12.00     24.00
   18.7244    246.07    240.96    -15.77     24.00
   18.7345    247.16    240.73    -14.46     24.00
   18.7447    249.10    240.41    -12.19     24.00
   18.7549    246.21    240.00    -14.67     24.00
   18.7650    246.80    239.50    -13.59     24.00
   18.7752    242.71    238.91    -17.09     24.00
   18.7854    241.47    238.24    -17.65     24.00
   18.7955    239.55    237.49    -18.82     24.00
   18.8057    238.94    236.65    -18.59     24.00
   18.8159    240.85    235.73    -15.76     24.00
   18.8260    239.52    234.74    -16.11     24.00
   18.8362    235.66    233.68    -18.90     24.00
   18.8463    234.04    232.55    -19.39     24.00
   18.8565    233.32    231.34    -18.91     24.00
   18.8667    230.63    230.07    -20.33     24.00
   18.8768    229.54    228.76    -20.10     24.00
   18.8870    226.45    227.37    -21.80     24.00
   18.8972    227.58    225.93    -19.23     24.00
   18.9073    221.70    224.45    -23.63     24.00
   18.9175    221.67    222.91    -22.12     24.00
   18.9277    220.04    221.32    -22.17     24.00
   18.9378    216.45    219.72    -24.15     24.00
   18.9480    214.90    218.06    -24.04     24.00
   18.9582    209.80    216.36    -27.45     24.00
   18.9683    210.12    214.65    -25.42     24.00
   18.9785    206.76    212.90    -27.03     24.00
   18.9887    206.98    211.13    -25.03     24.00
   18.9988    201.10    209.35    -29.14     24.00
   19.0090    202.71    207.54    -25.71     24.00
   19.0191    203.53    205.73    -23.09     24.00
   19.0293    197.63    203.90    -27.15     24.00
   19.0395    196.59    202.05    -26.35     24.00
   19.0496    196.51    200.22    -24.60     24.00
   19.0598    190.61    198.37    -28.64     24.00
   19.0700    192.03    196.52    -25.37     24.00
   19.0801    188.72    194.69    -26.85     24.00
   19.0903    187.17    192.85    -26.56     24.00
   19.1005    185.26    191.01    -26.64     24.00
   19.1106    184.82    189.21    -25.27     24.00
   19.1208    180.61    187.40    -27.67     24.00
   19.1310    180.32    185.60    -26.16     24.00
   19.1411    179.03    183.84    -25.69     24.00
   19.1513    177.70    182.07    -25.26     24.00
   19.1614    177.49    180.35    -23.74     24.00
   19.1716    173.93    178.63    -25.59     24.00
   19.1818    173.60    176.94    -24.22     24.00
   19.1919    174.10    175.29    -22.07     24.00
   19.2021    171.99    173.64    -22.54     24.00
   19.2123    169.35    172.03    -23.56     24.00
   19.2224    166.89    170.46    -24.46     24.00
   19.2326    167.51    168.91    -22.28     24.00
   19.2428    166.48    167.39    -21.79     24.00
   19.2529    163.34    165.92    -23.46     24.00
   19.2631    162.49    164.46    -22.86     24.00
   19.2733    161.88    163.04    -22.05     24.00
   19.2834    161.99    161.67    -20.57     24.00
   19.2936    160.80    160.33    -20.41     24.00
   19.3038    159.01    159.02    -20.89     24.00
   19.3139    158.76    157.76    -19.88     24.00
   19.3241    157.32    156.52    -20.08     24.00
   19.3342    154.70    155.33    -21.52     24.00
   19.3444    156.90    154.17    -18.16     24.00
   19.3546    155.47    153.05    -18.47     24.00
   19.3647    154.11    151.98    -18.75     24.00
   19.3749    153.66    150.94    -18.16     24.00
   19.3851    152.74    149.93    -18.07     24.00
   19.3952    151.29    148.97    -18.57     24.00
   19.4054    152.18    148.04    -16.75     24.00
   19.4156    148.21    147.15    -19.82     24.00
   19.4257    148.92    146.30    -18.27     24.00
   19.4359    151.41    145.49    -14.96     24.00
   19.4461    147.57    144.71    -18.02     24.00
   19.4562    146.41    143.97    -18.45     24.00
   19.4664    149.68    143.26    -14.47     24.00
   19.4765    146.23    142.60    -17.25     24.00
   19.4867    145.58    141.96    -17.27     24.00
   19.4969    146.36    141.36    -15.88     24.00
   19.5070    145.20    140.80    -16.48     24.00
   19.5172    144.21    140.26    -16.93     24.00
   19.5274    144.23    139.76    -16.41     24.00
   19.5375    144.30    139.29    -15.87     24.00
   19.5477    141.27    138.85    -18.46     24.00
   19.5579    144.70    138.44    -14.62     24.00
   19.5680    143.56    138.06    -15.38     24.00
   19.5782    142.16    137.71    -16.43     24.00
   19.5884    142.15    137.38    -16.12     24.00
   19.5985    143.02    137.09    -14.95     24.00
   19.6087    142.09    136.81    -15.61     24.00
   19.6188    140.51    136.57    -16.94     24.00
   19.6290    138.77    136.35    -18.46     24.00
   19.6392    141.57    136.15    -15.46     24.00
   19.6493    138.55    135.98    -18.31     24.00
   19.6595    140.63    135.82    -16.08     24.00
   19.6697    140.34    135.69    -16.24     24.00
   19.6798    138.87    135.58    -17.59     24.00
   19.6900    139.25    135.49    -17.12     24.00
   19.7002    137.27    135.42    -19.03     24.00
   19.7103    137.51    135.36    -18.74     24.00
   19.7205    137.27    135.32    -18.94     24.00
   19.7307    136.91    135.30    -19.28     24.00
   19.7408    136.90    135.30    -19.28     24.00
   19.7510    138.57    135.31    -17.62     24.00
   19.7612    137.87    135.33    -18.34     24.00
   19.7713    138.10    135.36    -18.15     24.00
   19.7815    138.62    135.41    -17.68     24.00
   19.7916    136.48    135.47    -19.88     24.00
   19.8018    136.86    135.55    -19.57     24.00
   19.8120    137.38    135.63    -19.13     24.00
   19.8221    136.22    135.72    -20.39     24.00
   19.8323    137.10    135.82    -19.61     24.00
   19.8425    136.45    135.93    -20.37     24.00
   19.8526    134.12    136.05    -22.82     24.00
   19.8628    136.34    136.18    -20.72     24.00
   19.8730    136.30    136.31    -20.89     24.00
   19.8831    136.30    136.45    -21.03     24.00
   19.8933    133.92    136.59    -23.56     24.00
   19.9035    135.87    136.74    -21.76     24.00
   19.9136    134.90    136.90    -22.88     24.00
   19.9238    137.45    137.05    -20.49     24.00
   19.9339    135.57    137.21    -22.53     24.00
   19.9441    136.21    137.38    -22.05     24.00
   19.9543    134.01    137.54    -24.42     24.00
   19.9644    135.07    137.71    -23.53     24.00
   19.9746    135.63    137.88    -23.14     24.00
   19.9848    134.68    138.05    -24.26     24.00
   19.9949    135.95    138.22    -23.16     24.00
   20.0051    134.29    138.40    -24.99     24.00
   20.0153    135.60    138.57    -23.85     24.00
   20.0254    134.49    138.74    -25.13     24.00
   20.0356    135.83    138.91    -23.96     24.00
   20.0458    137.32    139.08    -22.64     24.00
   20.0559    135.49    139.25    -24.64     24.00
   20.0661    135.29    139.41    -25.01     24.00
   20.0763    135.91    139.58    -24.55     24.00
   20.0864    134.97    139.74    -25.65     24.00
   20.0966    136.54    139.89    -24.24     24.00
   20.1067    136.82    140.05    -24.11     24.00
   20.1169    136.36    140.20    -24.72     24.00
   20.1271    134.08    140.35    -27.15     24.00
   20.1372    136.79    140.49    -24.58     24.00
   20.1474    137.55    140.63    -23.96     24.00
   20.1576    136.48    140.76    -25.16     24.00
   20.1677    138.00    140.89    -23.77     24.00
   20.1779    135.82    141.01    -26.07     24.00
   20.1881    137.45    141.13    -24.56     24.00
   20.1982    137.98    141.24    -24.14     24.00
   20.2084    137.65    141.35    -24.58     24.00
   20.2186    137.03    141.45    -25.30     24.00
   20.2287    138.38    141.54    -24.05     24.00
   20.2389    138.94    141.63    -23.57     24.00
   20.2490    136.34    141.71    -26.25     24.00
   20.2592    138.14    141.79    -24.53     24.00
   20.2694    138.80    141.85    -23.94     24.00
   20.2795    136.98    141.91    -25.82     24.00
   20.2897    137.50    141.97    -25.35     24.00
   20.2999    136.96    142.01    -25.94     24.00
   20.3100    137.83    142.05    -25.11     24.00
   20.3202    140.52    142.08    -22.45     24.00
   20.3304    141.70    142.11    -21.29     24.00
   20.3405    138.37    142.12    -24.64     24.00
   20.3507    140.35    142.13    -22.66     24.00
   20.3609    139.77    142.13    -23.24     24.00
   20.3710    140.07    142.12    -22.94     24.00
   20.3812    141.40    142.11    -21.59     24.00
   20.3914    141.23    142.08    -21.74     24.00
   20.4015    139.71    142.05    -23.22     24.00
   20.4117    142.50    142.01    -20.39     24.00
   20.4218    139.72    141.96    -23.13     24.00
   20.4320    139.89    141.91    -22.90     24.00
   20.4422    142.37    141.84    -20.36     24.00
   20.4523    143.85    141.77    -18.80     24.00
   20.4625    141.40    141.69    -21.17     24.00
   20.4727    141.16    141.60    -21.33     24.00
   20.4828    142.87    141.51    -19.52     24.00
   20.4930    142.36    141.40    -19.93     24.00
   20.5032    142.67    141.29    -19.50     24.00
   20.5133    142.62    141.17    -19.43     24.00
   20.5235    141.63    141.04    -20.30     24.00
   20.5337    143.09    140.91    -18.70     24.00
   20.5438    143.02    140.77    -18.63     24.00
   20.5540    141.88    140.62    -19.62     24.00
   20.5641    140.63    140.46    -20.71     24.00
   20.5743    141.95    140.29    -19.23     24.00
   20.5845    141.00    140.12    -20.01     24.00
   20.5946    142.18    139.95    -18.65     24.00
   20.6048    143.57    139.76    -17.07     24.00
   20.6150    141.52    139.57    -18.93     24.00
   20.6251    141.60    139.37    -18.65     24.00
   20.6353    142.05    139.17    -18.00     24.00
   20.6455    143.49    138.95    -16.35     24.00
   20.6556    144.53    138.74    -15.09     24.00
   20.6658    142.04    138.52    -17.36     24.00
   20.6760    141.41    138.29    -17.76     24.00
   20.6861    143.14    138.05    -15.80     24.00
   20.6963    141.79    137.81    -16.91     24.00
   20.7065    141.33    137.57    -17.12     24.00
   20.7166    139.57    137.32    -18.64     24.00
   20.7268    140.68    137.07    -17.27     24.00
   20.7369    140.98    136.81    -16.72     24.00
   20.7471    139.77    136.55    -17.66     24.00
   20.7573    141.98    136.28    -15.18     24.00
   20.7674    139.33    136.01    -17.57     24.00
   20.7776    138.85    135.74    -17.77     24.00
   20.7878    140.77    135.46    -15.57     24.00
   20.7979    137.57    135.18    -18.49     24.00
   20.8081    138.70    134.89    -17.08     24.00
   20.8183    137.81    134.60    -17.68     24.00
   20.8284    136.46    134.32    -18.74     24.00
   20.8386    137.46    134.02    -17.45     24.00
   20.8488    136.98    133.73    -17.63     24.00
   20.8589    137.38    133.43    -16.94     24.00
   20.8691    135.23    133.13    -18.79     24.00
   20.8792    137.08    132.84    -16.64     24.00
   20.8894    135.65    132.54    -17.77     24.00
   20.8996    135.93    132.23    -17.19     24.00
   20.9097    135.20    131.93    -17.62     24.00
   20.9199    132.73    131.63    -19.78     24.00
   20.9301    133.21    131.32    -19.00     24.00
   20.9402    134.08    131.02    -17.83     24.00
   20.9504    131.95    130.72    -19.65     24.00
   20.9606    131.48    130.41    -19.82     24.00
   20.9707    131.76    130.11    -19.24     24.00
   20.9809    130.73    129.81    -19.96     24.00
   20.9911    132.38    129.51    -18.01     24.00
   21.0012    132.63    129.21    -17.47     24.00
   21.0114    129.75    128.91    -20.05     24.00
   21.0216    128.37    128.62    -21.13     24.00
   21.0317    131.23    128.32    -17.98     24.00
   21.0419    127.48    128.03    -21.44     24.00
   21.0520    130.04    127.74    -18.59     24.00
   21.0622    127.52    127.46    -20.82     24.00
   21.0724    127.02    127.17    -21.04     24.00
   21.0825    126.68    126.90    -21.10     24.00
   21.0927    127.80    126.62    -19.70     24.00
   21.1029    126.07    126.34    -21.16     24.00
   21.1130    125.57    126.08    -21.39     24.00
   21.1232    125.45    125.81    -21.25     24.00
   21.1334    124.25    125.55    -22.18     24.00
   21.1435    125.82    125.30    -20.36     24.00
   21.1537    124.53    125.04    -21.40     24.00
   21.1639    123.12    124.80    -22.56     24.00
   21.1740    124.16    124.56    -21.28     24.00
   21.1842    125.58    124.32    -19.63     24.00
   21.1943    122.16    124.10    -22.82     24.00
   21.2045    123.41    123.87    -21.35     24.00
   21.2147    122.72    123.66    -21.82     24.00
   21.2248    121.90    123.45    -22.43     24.00
   21.2350    121.87    123.24    -22.26     24.00
   21.2452    121.37    123.05    -22.56     24.00
   21.2553    120.95    122.86    -22.79     24.00
   21.2655    122.48    122.68    -21.08     24.00
   21.2757    122.15    122.50    -21.24     24.00
   21.2858    120.11    122.34    -23.11     24.00
   21.2960    121.63    122.18    -21.43     24.00
   21.3062    118.76    122.03    -24.15     24.00
   21.3163    120.54    121.89    -22.23     24.00
   21.3265    120.60    121.75    -22.04     24.00
   21.3366    119.76    121.63    -22.75     24.00
   21.3468    117.85    121.51    -24.55     24.00
   21.3570    119.25    121.41    -23.04     24.00
   21.3671    119.73    121.31    -22.47     24.00
   21.3773    118.36    121.22    -23.75     24.00
   21.3875    121.15    121.15    -20.88     24.00
   21.3976    120.48    121.08    -21.48     24.00
   21.4078    117.21    121.02    -24.70     24.00
   21.4180    119.77    120.98    -22.09     24.00
   21.4281    118.92    120.94    -22.90     24.00
   21.4383    116.41    120.91    -25.39     24.00
   21.4485    120.32    120.90    -21.46     24.00
   21.4586    118.73    120.89    -23.05     24.00
   21.4688    115.99    120.90    -25.79     24.00
   21.4790    119.12    120.92    -22.68     24.00
   21.4891    119.45    120.95    -22.38     24.00
   21.4993    117.62    120.99    -24.25     24.00
   21.5094    119.87    121.04    -22.05     24.00
   21.5196    117.76    121.10    -24.23     24.00
   21.5298    116.69    121.18    -25.37     24.00
   21.5399    116.85    121.26    -25.30     24.00
   21.5501    120.50    121.36    -21.74     24.00
   21.5603    119.09    121.47    -23.26     24.00
   21.5704    118.98    121.59    -23.49     24.00
   21.5806    120.28    121.72    -22.33     24.00
   21.5908    118.66    121.87    -24.09     24.00
   21.6009    119.33    122.03    -23.58     24.00
   21.6111    120.29    122.20    -22.79     24.00
   21.6213    118.02    122.38    -25.24     24.00
   21.6314    120.28    122.57    -23.17     24.00
   21.6416    120.15    122.77    -23.51     24.00
   21.6517    120.27    122.99    -23.60     24.00
   21.6619    121.71    123.22    -22.39     24.00
   21.6721    122.13    123.46    -22.21     24.00
   21.6822    121.48    123.71    -23.11     24.00
   21.6924    123.69    123.97    -21.17     24.00
   21.7026    122.65    124.25    -22.48     24.00
   21.7127    123.36    124.54    -22.06     24.00
   21.7229    123.12    124.83    -22.60     24.00
   21.7331    123.74    125.14    -22.29     24.00
   21.7432    122.83    125.46    -23.52     24.00
   21.7534    124.55    125.79    -22.13     24.00
   21.7636    127.14    126.14    -19.88     24.00
   21.7737    123.60    126.49    -23.77     24.00
   21.7839    126.99    126.85    -20.74     24.00
   21.7941    127.11    127.22    -21.00     24.00
   21.8042    127.41    127.60    -21.08     24.00
   21.8144    128.90    128.00    -19.98     24.00
   21.8245    127.22    128.40    -22.06     24.00
   21.8347    126.98    128.81    -22.71     24.00
   21.8449    130.24    129.23    -19.87     24.00
   21.8550    129.75    129.65    -20.79     24.00
   21.8652    129.45    130.09    -21.53     24.00
   21.8754    132.38    130.54    -19.04     24.00
   21.8855    132.52    130.99    -19.35     24.00
   21.8957    130.40    131.45    -21.93     24.00
   21.9059    133.82    131.92    -18.98     24.00
   21.9160    134.32    132.39    -18.95     24.00
   21.9262    132.79    132.87    -20.96     24.00
   21.9364    134.69    133.35    -19.55     24.00
   21.9465    135.23    133.84    -19.49     24.00
   21.9567    134.43    134.34    -20.79     24.00
   21.9668    136.17    134.83    -19.55     24.00
   21.9770    137.51    135.34    -18.71     24.00
   21.9872    135.57    135.85    -21.16     24.00
   21.9973    137.05    136.36    -20.19     24.00
   22.0075    136.59    136.87    -21.17     24.00
   22.0177    136.74    137.39    -21.54     24.00
   22.0278    138.10    137.91    -20.69     24.00
   22.0380    139.52    138.43    -19.79     24.00
   22.0482    140.43    138.95    -19.40     24.00
   22.0583    141.60    139.47    -18.75     24.00
   22.0685    142.57    139.99    -18.30     24.00
   22.0787    139.43    140.51    -21.96     24.00
   22.0888    142.24    141.02    -19.67     24.00
   22.0990    142.90    141.54    -19.52     24.00
   22.1092    143.38    142.05    -19.56     24.00
   22.1193    143.62    142.56    -19.82     24.00
   22.1295    143.49    143.06    -20.46     24.00
   22.1396    144.24    143.56    -20.21     24.00
   22.1498    145.95    144.06    -18.99     24.00
   22.1600    146.48    144.55    -18.95     24.00
   22.1701    145.16    145.03    -20.75     24.00
   22.1803    147.76    145.51    -18.63     24.00
   22.1905    146.83    145.98    -20.03     24.00
   22.2006    145.99    146.43    -21.33     24.00
   22.2108    149.78    146.89    -17.99     24.00
   22.2210    149.59    147.33    -18.62     24.00
   22.2311    147.40    147.76    -21.24     24.00
   22.2413    151.02    148.18    -18.04     24.00
   22.2515    151.04    148.58    -18.43     24.00
   22.2616    149.63    148.98    -20.23     24.00
   22.2718    151.23    149.36    -19.01     24.00
   22.2819    152.28    149.73    -18.33     24.00
   22.2921    151.29    150.08    -19.67     24.00
   22.3023    153.86    150.42    -17.44     24.00
   22.3124    154.75    150.74    -16.87     24.00
   22.3226    151.43    151.05    -20.50     24.00
   22.3328    153.56    151.34    -18.66     24.00
   22.3429    154.99    151.61    -17.50     24.00
   22.3531    154.47    151.86    -18.28     24.00
   22.3633    153.61    152.10    -19.37     24.00
   22.3734    154.37    152.31    -18.83     24.00
   22.3836    155.35    152.51    -18.05     24.00
   22.3938    153.92    152.69    -19.65     24.00
   22.4039    155.96    152.84    -17.77     24.00
   22.4141    155.05    152.98    -18.81     24.00
   22.4243    157.34    153.09    -16.63     24.00
   22.4344    156.62    153.18    -17.44     24.00
   22.4446    154.37    153.25    -19.76     24.00
   22.4547    154.77    153.29    -19.41     24.00
   22.4649    154.32    153.31    -19.88     24.00
   22.4751    154.05    153.31    -20.15     24.00
   22.4852    153.33    153.29    -20.84     24.00
   22.4954    154.56    153.24    -19.57     24.00
   22.5056    152.71    153.17    -21.34     24.00
   22.5157    154.15    153.07    -19.81     24.00
   22.5259    155.01    152.95    -18.83     24.00
   22.5361    152.37    152.81    -21.32     24.00
   22.5462    153.32    152.64    -20.21     24.00
   22.5564    154.69    152.45    -18.65     24.00
   22.5666    152.12    152.24    -21.00     24.00
   22.5767    152.75    152.00    -20.13     24.00
   22.5869    152.55    151.74    -20.07     24.00
   22.5970    151.95    151.45    -20.39     24.00
   22.6072    151.97    151.14    -20.06     24.00
   22.6174    150.18    150.81    -21.52     24.00
   22.6275    149.34    150.46    -22.00     24.00
   22.6377    149.05    150.08    -21.92     24.00
   22.6479    149.40    149.69    -21.17     24.00
   22.6580    147.43    149.27    -22.72     24.00
   22.6682    147.29    148.83    -22.42     24.00
   22.6784    146.76    148.37    -22.49     24.00
   22.6885    144.57    147.89    -24.21     24.00
   22.6987    147.10    147.39    -21.17     24.00
   22.7089    145.33    146.87    -22.43     24.00
   22.7190    143.72    146.34    -23.50     24.00
   22.7292    144.47    145.78    -22.20     24.00
   22.7394    144.62    145.21    -21.47     24.00
   22.7495    142.12    144.63    -23.39     24.00
   22.7597    141.69    144.02    -23.21     24.00
   22.7698    140.62    143.40    -23.67     24.00
   22.7800    140.22    142.77    -23.43     24.00
   22.7902    141.87    142.12    -21.13     24.00
   22.8003    139.61    141.46    -22.74     24.00
   22.8105    136.87    140.78    -24.80     24.00
   22.8207    137.82    140.10    -23.16     24.00
   22.8308    138.02    139.40    -22.26     24.00
   22.8410    136.09    138.69    -23.48     24.00
   22.8512    135.52    137.97    -23.33     24.00
   22.8613    135.33    137.24    -22.80     24.00
   22.8715    133.82    136.50    -23.56     24.00
   22.8817    132.88    135.75    -23.75     24.00
   22.8918    132.92    135.00    -22.96     24.00
   22.9020    131.77    134.23    -23.35     24.00
   22.9121    130.94    133.47    -23.41     24.00
   22.9223    132.40    132.69    -21.17     24.00
   22.9325    130.05    131.90    -22.74     24.00
   22.9426    130.31    131.12    -21.70     24.00
   22.9528    127.59    130.33    -23.62     24.00
   22.9630    126.95    129.53    -23.47     24.00
   22.9731    127.89    128.74    -21.73     24.00
   22.9833    125.39    127.93    -23.43     24.00
   22.9935    123.77    127.13    -24.24     24.00
   23.0036    124.05    126.33    -23.16     24.00
   23.0138    123.15    125.52    -23.25     24.00
   23.0240    124.98    124.71    -20.61     24.00
   23.0341    121.38    123.91    -23.41     24.00
   23.0443    121.62    123.09    -22.36     24.00
   23.0545    120.29    122.28    -22.88     24.00
   23.0646    118.51    121.48    -23.86     24.00
   23.0748    119.19    120.68    -22.37     24.00
   23.0849    117.57    119.88    -23.19     24.00
   23.0951    115.66    119.08    -24.30     24.00
   23.1053    117.15    118.28    -22.01     24.00
   23.1154    116.48    117.49    -21.89     24.00
   23.1256    116.46    116.69    -21.12     24.00
   23.1358    115.21    115.90    -21.58     24.00
   23.1459    113.95    115.12    -22.06     24.00
   23.1561    113.85    114.34    -21.38     24.00
   23.1663    112.93    113.57    -21.52     24.00
   23.1764    112.66    112.80    -21.03     24.00
   23.1866    110.62    112.04    -22.30     24.00
   23.1968    111.85    111.28    -20.31     24.00
   23.2069    111.25    110.53    -20.16     24.00
   23.2171    110.19    109.78    -20.48     24.00
   23.2272    110.34    109.05    -19.59     24.00
   23.2374    108.85    108.31    -20.35     24.00
   23.2476    108.13    107.58    -20.34     24.00
   23.2577    108.43    106.87    -19.32     24.00
   23.2679    106.78    106.16    -20.26     24.00
   23.2781    106.76    105.45    -19.58     24.00
   23.2882    105.32    104.76    -20.32     24.00
   23.2984    106.23    104.07    -18.72     24.00
   23.3086    104.57    103.39    -19.70     24.00
   23.3187    103.34    102.72    -20.27     24.00
   23.3289    102.30    102.06    -20.64     24.00
   23.3391    102.33    101.40    -19.95     24.00
   23.3492    101.41    100.76    -20.23     24.00
   23.3594    101.10    100.12    -19.90     24.00
   23.3695    101.05     99.49    -19.33     24.00
   23.3797    100.99     98.87    -18.76     24.00
   23.3899     98.29     98.26    -20.85     24.00
   23.4000     98.43     97.66    -20.11     24.00
   23.4102     99.05     97.06    -18.90     24.00
   23.4204     99.48     96.48    -17.88     24.00
   23.4305     98.40     95.90    -18.39     24.00
   23.4407     97.27     95.34    -18.95     24.00
   23.4509     97.74     94.78    -17.92     24.00
   23.4610     96.77     94.23    -18.35     24.00
   23.4712     95.26     93.69    -19.31     24.00
   23.4814     94.52     93.16    -19.52     24.00
   23.4915     94.43     92.64    -19.09     24.00
   23.5017     93.50     92.13    -19.51     24.00
   23.5119     93.59     91.62    -18.91     24.00
   23.5220     92.15     91.13    -19.86     24.00
   23.5322     93.59     90.64    -17.94     24.00
   23.5423     92.32     90.17    -18.73     24.00
   23.5525     93.48     89.70    -17.10     24.00
   23.5627     90.68     89.24    -19.44     24.00
   23.5728     91.43     88.79    -18.24     24.00
   23.5830     92.24     88.34    -16.99     24.00
   23.5932     89.74     87.91    -19.05     24.00
   23.6033     89.99     87.48    -18.38     24.00
   23.6135     90.70     87.06    -17.25     24.00
   23.6237     88.92     86.65    -18.62     24.00
   23.6338     87.07     86.25    -20.07     24.00
   23.6440     87.87     85.86    -18.87     24.00
   23.6542     87.57     85.47    -18.78     24.00
   23.6643     88.59     85.09    -17.39     24.00
   23.6745     86.65     84.72    -18.95     24.00
   23.6846     86.25     84.36    -18.99     24.00
   23.6948     86.34     84.00    -18.55     24.00
   23.7050     86.23     83.65    -18.31     24.00
   23.7151     84.19     83.31    -20.01     24.00
   23.7253     83.74     82.97    -20.12     24.00
   23.7355     85.74     82.65    -17.79     24.00
   23.7456     84.46     82.33    -18.75     24.00
   23.7558     82.61     82.01    -20.28     24.00
   23.7660     83.75     81.70    -18.83     24.00
   23.7761     82.70     81.40    -19.58     24.00
   23.7863     83.97     81.10    -18.01     24.00
   23.7965     82.86     80.81    -18.83     24.00
   23.8066     82.98     80.53    -18.43     24.00
   23.8168     81.72     80.25    -19.41     24.00
   23.8270     82.32     79.97    -18.54     24.00
   23.8371     81.25     79.71    -19.34     24.00
   23.8473     80.55     79.44    -19.78     24.00
   23.8574     80.15     79.19    -19.92     24.00
   23.8676     80.31     78.93    -19.51     24.00
   23.8778     79.89     78.69    -19.68     24.00
   23.8879     79.40     78.45    -19.93     24.00
   23.8981     79.34     78.21    -19.75     24.00
   23.9083     78.21     77.97    -20.65     24.00
   23.9184     79.32     77.75    -19.31     24.00
   23.9286     78.04     77.52    -20.37     24.00
   23.9388     80.15     77.30    -18.04     24.00
   23.9489     77.80     77.09    -20.17     24.00
   23.9591     78.14     76.87    -19.62     24.00
   23.9693     78.41     76.67    -19.14     24.00
   23.9794     76.25     76.46    -21.10     24.00
   23.9896     76.62     76.26    -20.53     24.00
   23.9997     75.34     76.07    -21.61     24.00
   24.0099     77.27     75.87    -19.48     24.00
   24.0201     75.33     75.68    -21.23     24.00
   24.0302     75.00     75.49    -21.38     24.00
   24.0404     75.87     75.31    -20.32     24.00
   24.0506     75.14     75.13    -20.87     24.00
   24.0607     75.45     74.95    -20.38     24.00
   24.0709     76.26     74.77    -19.40     24.00
   24.0811     73.65     74.60    -21.84     24.00
   24.0912     74.84     74.43    -20.48     24.00
   24.1014     74.71     74.26    -20.44     24.00
   24.1116     74.24     74.10    -20.74     24.00
   24.1217     74.03     73.94    -20.79     24.00
   24.1319     73.11     73.78    -21.55     24.00
   24.1421     74.16     73.62    -20.34     24.00
   24.1522     73.20     73.46    -21.15     24.00
   24.1624     71.89     73.31    -22.30     24.00
   24.1725     72.65     73.16    -21.39     24.00
   24.1827     72.07     73.01    -21.82     24.00
   24.1929     72.81     72.86    -20.93     24.00
   24.2030     72.34     72.71    -21.26     24.00
   24.2132     70.97     72.57    -22.48     24.00
   24.2234     71.43     72.43    -21.88     24.00
   24.2335     71.30     72.29    -21.87     24.00
   24.2437     70.82     72.15    -22.21     24.00
   24.2539     71.62     72.01    -21.27     24.00
   24.2640     71.51     71.87    -21.25     24.00
   24.2742     69.95     71.74    -22.67     24.00
   24.2844     69.68     71.60    -22.81     24.00
   24.2945     69.55     71.47    -22.80     24.00
   24.3047     69.16     71.34    -23.06     24.00
   24.3148     70.10     71.21    -21.99     24.00
   24.3250     69.26     71.08    -22.70     24.00
   24.3352     69.51     70.95    -22.32     24.00
   24.3453     69.12     70.82    -22.59     24.00
   24.3555     69.50     70.70    -22.08     24.00
   24.3657     70.57     70.57    -20.89     24.00
   24.3758     68.49     70.45    -22.84     24.00
   24.3860     68.12     70.33    -23.09     24.00
   24.3962     68.96     70.20    -22.13     24.00
   24.4063     67.24     70.08    -23.73     24.00
   24.4165     69.99     69.96    -20.86     24.00
   24.4267     68.28     69.84    -22.44     24.00
   24.4368     68.45     69.72    -22.16     24.00
   24.4470     68.60     69.60    -21.89     24.00
   24.4572     67.23     69.49    -23.14     24.00
   24.4673     67.85     69.37    -22.40     24.00
   24.4775     66.46     69.25    -23.68     24.00
   24.4876     67.54     69.14    -22.48     24.00
   24.4978     66.17     69.02    -23.74     24.00
   24.5080     67.59     68.91    -22.20     24.00
   24.5181     68.40     68.79    -21.28     24.00
   24.5283     67.43     68.68    -22.13     24.00
   24.5385     65.37     68.57    -24.08     24.00
   24.5486     66.03     68.46    -23.31     24.00
   24.5588     66.20     68.34    -23.03     24.00
   24.5690     66.10     68.23    -23.02     24.00
   24.5791     65.77     68.12    -23.24     24.00
   24.5893     65.41     68.01    -23.48     24.00
   24.5995     65.22     67.90    -23.56     24.00
   24.6096     65.44     67.79    -23.24     24.00
   24.6198     64.51     67.68    -24.06     24.00
   24.6299     65.24     67.57    -23.22     24.00
   24.6401     65.66     67.46    -22.69     24.00
   24.6503     65.54     67.36    -22.70     24.00
   24.6604     65.65     67.25    -22.48     24.00
   24.6706     65.47     67.14    -22.56     24.00
   24.6808     65.18     67.03    -22.74     24.00
   24.6909     65.53     66.93    -22.28     24.00
   24.7011     64.63     66.82    -23.08     24.00
   24.7113     65.41     66.71    -22.19     24.00
   24.7214     63.55     66.61    -23.94     24.00
   24.7316     64.95     66.50    -22.44     24.00
   24.7418     64.45     66.40    -22.83     24.00
   24.7519     64.51     66.29    -22.67     24.00
   24.7621     65.42     66.19    -21.65     24.00
   24.7723     64.59     66.08    -22.38     24.00
   24.7824     63.98     65.98    -22.88     24.00
   24.7926     63.43     65.88    -23.33     24.00
   24.8027     63.91     65.77    -22.75     24.00
   24.8129     63.54     65.67    -23.01     24.00
   24.8231     63.53     65.57    -22.92     24.00
   24.8332     62.84     65.46    -23.51     24.00
   24.8434     64.37     65.36    -21.88     24.00
   24.8536     63.56     65.26    -22.58     24.00
   24.8637     62.45     65.16    -23.59     24.00
   24.8739     63.04     65.06    -22.90     24.00
   24.8841     63.48     64.95    -22.36     24.00
   24.8942     62.83     64.85    -22.91     24.00
   24.9044     60.97     64.75    -24.67     24.00
   24.9146     62.44     64.65    -23.09     24.00
   24.9247     62.92     64.55    -22.51     24.00
   24.9349     62.49     64.45    -22.84     24.00
   24.9450     63.05     64.35    -22.18     24.00
   24.9552     61.68     64.25    -23.45     24.00
   24.9654     60.86     64.15    -24.17     24.00
   24.9755     61.95     64.05    -22.98     24.00
   24.9857     61.72     63.95    -23.11     24.00
   24.9959     60.90     63.85    -23.83     24.00
   25.0060     60.98     63.75    -23.66     24.00
   25.0162     60.95     63.65    -23.59     24.00
   25.0264     60.66     63.55    -23.78     24.00
   25.0365     63.07     63.45    -21.27     24.00
   25.0467     61.83     63.36    -22.41     24.00
   25.0569     61.87     63.26    -22.27     24.00
   25.0670     61.23     63.16    -22.81     24.00
   25.0772     60.74     63.06    -23.21     24.00
   25.0874     61.81     62.96    -22.04     24.00
   25.0975     61.16     62.87    -22.59     24.00
   25.1077     61.84     62.77    -21.81     24.00
   25.1178     60.90     62.67    -22.66     24.00
   25.1280     60.03     62.58    -23.43     24.00
   25.1382     60.71     62.48    -22.65     24.00
   25.1483     60.13     62.38    -23.14     24.00
   25.1585     60.70     62.29    -22.47     24.00
   25.1687     60.01     62.19    -23.06     24.00
   25.1788     60.39     62.09    -22.59     24.00
   25.1890     60.96     62.00    -21.92     24.00
   25.1992     60.07     61.90    -22.72     24.00
   25.2093     59.38     61.81    -23.31     24.00
   25.2195     60.56     61.71    -22.04     24.00
   25.2297     60.04     61.62    -22.46     24.00
   25.2398     61.00     61.52    -21.41     24.00
   25.2500     60.00     61.43    -22.31     24.00
   25.2601     59.23     61.33    -22.99     24.00
   25.2703     59.77     61.24    -22.35     24.00
   25.2805     58.93     61.14    -23.10     24.00
   25.2906     59.63     61.05    -22.31     24.00
   25.3008     59.33     60.96    -22.51     24.00
   25.3110     59.60     60.86    -22.15     24.00
   25.3211     58.92     60.77    -22.73     24.00
   25.3313     59.63     60.68    -21.93     24.00
   25.3415     59.07     60.58    -22.40     24.00
   25.3516     59.41     60.49    -21.97     24.00
   25.3618     59.63     60.40    -21.65     24.00
   25.3720     58.90     60.31    -22.29     24.00
   25.3821     59.55     60.21    -21.55     24.00
   25.3923     60.23     60.12    -20.77     24.00
   25.4024     58.67     60.03    -22.24     24.00
   25.4126     58.34     59.94    -22.48     24.00
   25.4228     57.46     59.85    -23.27     24.00
   25.4329     59.43     59.75    -21.21     24.00
   25.4431     59.42     59.66    -21.13     24.00
   25.4533     58.44     59.57    -22.01     24.00
   25.4634     57.07     59.48    -23.29     24.00
   25.4736     59.72     59.39    -20.55     24.00
   25.4838     58.18     59.30    -22.00     24.00
   25.4939     59.17     59.21    -20.92     24.00
   25.5041     58.26     59.12    -21.74     24.00
   25.5143     58.62     59.03    -21.29     24.00
   25.5244     58.93     58.94    -20.89     24.00
   25.5346     57.21     58.85    -22.52     24.00
   25.5448     58.36     58.76    -21.28     24.00
   25.5549     56.37     58.67    -23.18     24.00
   25.5651     57.29     58.58    -22.17     24.00
   25.5752     57.69     58.49    -21.69     24.00
   25.5854     58.38     58.40    -20.91     24.00
   25.5956     56.98     58.31    -22.22     24.00
   25.6057     57.41     58.23    -21.70     24.00
   25.6159     56.20     58.14    -22.82     24.00
   25.6261     57.38     58.05    -21.55     24.00
   25.6362     57.41     57.96    -21.43     24.00
   25.6464     57.30     57.87    -21.46     24.00
   25.6566     57.66     57.78    -21.01     24.00
   25.6667     57.00     57.70    -21.58     24.00
   25.6769     55.41     57.61    -23.08     24.00
   25.6871     56.98     57.52    -21.43     24.00
   25.6972     57.74     57.44    -20.58     24.00
   25.7074     57.46     57.35    -20.77     24.00
   25.7175     56.65     57.26    -21.50     24.00
   25.7277     57.30     57.18    -20.76     24.00
   25.7379     56.60     57.09    -21.37     24.00
   25.7480     57.07     57.00    -20.82     24.00
   25.7582     56.63     56.92    -21.17     24.00
   25.7684     56.85     56.83    -20.87     24.00
   25.7785     57.31     56.75    -20.32     24.00
   25.7887     57.41     56.66    -20.14     24.00
   25.7989     55.93     56.58    -21.53     24.00
   25.8090     57.30     56.49    -20.08     24.00
   25.8192     56.68     56.41    -20.61     24.00
   25.8294     55.62     56.32    -21.59     24.00
   25.8395     56.12     56.24    -21.00     24.00
   25.8497     56.21     56.15    -20.83     24.00
   25.8599     56.24     56.07    -20.71     24.00
   25.8700     56.55     55.99    -20.32     24.00
   25.8802     55.01     55.90    -21.78     24.00
   25.8903     55.96     55.82    -20.74     24.00
   25.9005     54.91     55.74    -21.71     24.00
   25.9107     55.23     55.65    -21.31     24.00
   25.9208     54.98     55.57    -21.48     24.00
   25.9310     56.20     55.49    -20.17     24.00
   25.9412     55.69     55.41    -20.60     24.00
   25.9513     55.42     55.32    -20.79     24.00
   25.9615     55.44     55.24    -20.69     24.00
   25.9717     54.65     55.16    -21.39     24.00
   25.9818     55.67     55.08    -20.29     24.00
   25.9920     55.73     55.00    -20.15     24.00
   26.0022     55.56     54.92    -20.24     24.00
   26.0123     55.38     54.83    -20.34     24.00
   26.0225     56.88     54.75    -18.76     24.00
   26.0326     54.46     54.67    -21.10     24.00
   26.0428     54.88     54.59    -20.60     24.00
   26.0530     54.68     54.51    -20.72     24.00
   26.0631     55.16     54.43    -20.16     24.00
   26.0733     54.19     54.35    -21.05     24.00
   26.0835     53.54     54.27    -21.62     24.00
   26.0936     54.64     54.20    -20.44     24.00
   26.1038     54.53     54.12    -20.47     24.00
   26.1140     54.04     54.04    -20.88     24.00
   26.1241     53.99     53.96    -20.85     24.00
   26.1343     54.60     53.88    -20.16     24.00
   26.1445     53.82     53.80    -20.87     24.00
   26.1546     52.99     53.72    -21.62     24.00
   26.1648     54.97     53.65    -19.56     24.00
   26.1750     55.34     53.57    -19.11     24.00
   26.1851     54.73     53.49    -19.65     24.00
   26.1953     54.02     53.42    -20.28     24.00
   26.2054     53.39     53.34    -20.83     24.00
   26.2156     54.54     53.26    -19.61     24.00
   26.2258     53.91     53.19    -20.16     24.00
   26.2359     53.97     53.11    -20.02     24.00
   26.2461     52.58     53.03    -21.34     24.00
   26.2563     54.14     52.96    -19.70     24.00
   26.2664     52.98     52.88    -20.79     24.00
   26.2766     53.70     52.81    -19.99     24.00
   26.2868     54.48     52.74    -19.14     24.00
   26.2969     53.54     52.66    -20.01     24.00
   26.3071     53.66     52.59    -19.81     24.00
   26.3173     52.88     52.51    -20.52     24.00
   26.3274     52.43     52.44    -20.89     24.00
   26.3376     54.04     52.37    -19.21     24.00
   26.3477     53.70     52.30    -19.48     24.00
   26.3579     53.81     52.22    -19.30     24.00
   26.3681     52.81     52.15    -20.22     24.00
   26.3782     52.42     52.08    -20.54     24.00
   26.3884     52.66     52.01    -20.23     24.00
   26.3986     52.59     51.94    -20.23     24.00
   26.4087     53.21     51.87    -19.54     24.00
   26.4189     54.15     51.80    -18.53     24.00
   26.4291     53.63     51.73    -18.98     24.00
   26.4392     53.49     51.66    -19.05     24.00
   26.4494     52.58     51.59    -19.89     24.00
   26.4596     52.68     51.52    -19.72     24.00
   26.4697     52.49     51.45    -19.84     24.00
   26.4799     52.74     51.38    -19.53     24.00
   26.4901     52.01     51.31    -20.19     24.00
   26.5002     52.99     51.25    -19.14     24.00
   26.5104     52.73     51.18    -19.34     24.00
   26.5205     53.10     51.12    -18.90     24.00
   26.5307     51.73     51.05    -20.20     24.00
   26.5409     52.01     50.98    -19.86     24.00
   26.5510     52.63     50.92    -19.17     24.00
   26.5612     51.63     50.86    -20.11     24.00
   26.5714     51.68     50.79    -20.00     24.00
   26.5815     52.47     50.73    -19.14     24.00
   26.5917     51.84     50.67    -19.71     24.00
   26.6019     52.68     50.60    -18.81     24.00
   26.6120     51.94     50.54    -19.49     24.00
   26.6222     51.60     50.48    -19.77     24.00
   26.6324     52.63     50.42    -18.68     24.00
   26.6425     51.62     50.36    -19.63     24.00
   26.6527     51.77     50.30    -19.42     24.00
   26.6628     53.30     50.25    -17.83     24.00
   26.6730     51.40     50.19    -19.67     24.00
   26.6832     52.49     50.13    -18.52     24.00
   26.6933     51.84     50.07    -19.12     24.00
   26.7035     51.50     50.02    -19.40     24.00
   26.7137     52.25     49.96    -18.60     24.00
   26.7238     51.05     49.91    -19.74     24.00
   26.7340     50.75     49.86    -19.99     24.00
   26.7442     52.25     49.80    -18.44     24.00
   26.7543     51.21     49.75    -19.43     24.00
   26.7645     52.07     49.70    -18.52     24.00
   26.7747     51.53     49.65    -19.01     24.00
   26.7848     51.12     49.60    -19.37     24.00
   26.7950     51.51     49.56    -18.93     24.00
   26.8052     52.20     49.51    -18.19     24.00
   26.8153     51.68     49.46    -18.67     24.00
   26.8255     50.52     49.42    -19.78     24.00
   26.8356     50.94     49.37    -19.32     24.00
   26.8458     50.80     49.33    -19.41     24.00
   26.8560     50.89     49.29    -19.28     24.00
   26.8661     50.97     49.25    -19.16     24.00
   26.8763     51.58     49.21    -18.51     24.00
   26.8865     51.16     49.17    -18.89     24.00
   26.8966     51.15     49.13    -18.87     24.00
   26.9068     50.56     49.09    -19.42     24.00
   26.9170     51.82     49.06    -18.12     24.00
   26.9271     51.24     49.03    -18.67     24.00
   26.9373     50.89     48.99    -18.99     24.00
   26.9475     50.86     48.96    -18.99     24.00
   26.9576     51.35     48.93    -18.47     24.00
   26.9678     50.87     48.91    -18.92     24.00
   26.9779     51.65     48.88    -18.11     24.00
   26.9881     50.92     48.85    -18.82     24.00
   26.9983     49.52     48.83    -20.19     24.00
   27.0084     51.60     48.81    -18.09     24.00
   27.0186     50.64     48.79    -19.03     24.00
   27.0288     50.27     48.77    -19.38     24.00
   27.0389     50.55     48.75    -19.08     24.00
   27.0491     51.62     48.73    -18.00     24.00
   27.0593     51.66     48.72    -17.94     24.00
   27.0694     51.73     48.71    -17.86     24.00
   27.0796     51.17     48.70    -18.41     24.00
   27.0898     50.23     48.69    -19.34     24.00
   27.0999     50.85     48.68    -18.72     24.00
   27.1101     50.88     48.68    -18.68     24.00
   27.1202     50.80     48.68    -18.76     24.00
   27.1304     50.63     48.67    -18.93     24.00
   27.1406     50.55     48.68    -19.01     24.00
   27.1507     49.87     48.68    -19.69     24.00
   27.1609     51.59     48.68    -17.98     24.00
   27.1711     51.47     48.69    -18.11     24.00
   27.1812     50.98     48.70    -18.61     24.00
   27.1914     50.55     48.71    -19.05     24.00
   27.2016     50.68     48.73    -18.93     24.00
   27.2117     50.13     48.74    -19.50     24.00
   27.2219     49.67     48.76    -19.98     24.00
   27.2321     49.85     48.78    -19.82     24.00
   27.2422     50.60     48.81    -19.09     24.00
   27.2524     51.09     48.83    -18.63     24.00
   27.2626     49.34     48.86    -20.41     24.00
   27.2727     50.64     48.89    -19.14     24.00
   27.2829     49.63     48.93    -20.18     24.00
   27.2930     49.26     48.96    -20.59     24.00
   27.3032     50.21     49.00    -19.68     24.00
   27.3134     49.05     49.04    -20.88     24.00
   27.3235     50.23     49.09    -19.74     24.00
   27.3337     49.75     49.13    -20.27     24.00
   27.3439     49.83     49.18    -20.24     24.00
   27.3540     50.80     49.24    -19.32     24.00
   27.3642     51.25     49.29    -18.92     24.00
   27.3744     51.39     49.35    -18.84     24.00
   27.3845     51.24     49.41    -19.05     24.00
   27.3947     49.89     49.47    -20.47     24.00
   27.4049     50.71     49.54    -19.71     24.00
   27.4150     50.59     49.61    -19.90     24.00
   27.4252     49.79     49.68    -20.77     24.00
   27.4353     50.15     49.75    -20.49     24.00
   27.4455     50.12     49.83    -20.60     24.00
   27.4557     49.85     49.91    -20.95     24.00
   27.4658     51.35     50.00    -19.53     24.00
   27.4760     51.38     50.08    -19.59     24.00
   27.4862     50.67     50.17    -20.39     24.00
   27.4963     50.46     50.27    -20.69     24.00
   27.5065     51.54     50.36    -19.71     24.00
   27.5167     51.33     50.46    -20.02     24.00
   27.5268     50.69     50.56    -20.76     24.00
   27.5370     51.87     50.67    -19.68     24.00
   27.5472     51.69     50.78    -19.97     24.00
   27.5573     51.04     50.89    -20.73     24.00
   27.5675     52.04     51.00    -19.84     24.00
   27.5777     51.68     51.12    -20.32     24.00
   27.5878     51.50     51.24    -20.62     24.00
   27.5980     51.91     51.36    -20.33     24.00
   27.6081     51.69     51.48    -20.68     24.00
   27.6183     51.49     51.61    -21.01     24.00
   27.6285     50.98     51.75    -21.65     24.00
   27.6386     52.26     51.88    -20.50     24.00
   27.6488     53.18     52.02    -19.72     24.00
   27.6590     53.38     52.16    -19.66     24.00
   27.6691     51.63     52.30    -21.55     24.00
   27.6793     52.16     52.45    -21.17     24.00
   27.6895     50.89     52.59    -22.59     24.00
   27.6996     53.41     52.74    -20.22     24.00
   27.7098     51.88     52.90    -21.90     24.00
   27.7200     52.08     53.05    -21.86     24.00
   27.7301     52.95     53.21    -21.15     24.00
   27.7403     52.02     53.37    -22.24     24.00
   27.7504     52.38     53.54    -22.04     24.00
   27.7606     52.94     53.70    -21.65     24.00
   27.7708     54.22     53.87    -20.53     24.00
   27.7809     53.13     54.04    -21.79     24.00
   27.7911     53.11     54.21    -21.99     24.00
   27.8013     52.26     54.39    -23.01     24.00
   27.8114     53.04     54.56    -22.41     24.00
   27.8216     52.69     54.74    -22.94     24.00
   27.8318     53.76     54.92    -22.05     24.00
   27.8419     53.44     55.10    -22.55     24.00
   27.8521     52.87     55.29    -23.30     24.00
   27.8623     54.09     55.47    -22.27     24.00
   27.8724     54.53     55.66    -22.01     24.00
   27.8826     54.46     55.85    -22.27     24.00
   27.8928     55.27     56.04    -21.65     24.00
   27.9029     56.23     56.23    -20.88     24.00
   27.9131     54.51     56.42    -22.79     24.00
   27.9232     55.69     56.61    -21.80     24.00
   27.9334     55.84     56.80    -21.85     24.00
   27.9436     55.47     57.00    -22.41     24.00
   27.9537     56.05     57.19    -22.03     24.00
   27.9639     55.96     57.39    -22.31     24.00
   27.9741     57.34     57.59    -21.13     24.00
   27.9842     55.49     57.78    -23.17     24.00
   27.9944     55.99     57.98    -22.87     24.00
   28.0046     56.55     58.17    -22.51     24.00
   28.0147     56.55     58.37    -22.70     24.00
   28.0249     56.79     58.56    -22.66     24.00
   28.0351     56.52     58.76    -23.12     24.00
   28.0452     57.10     58.95    -22.74     24.00
   28.0554     56.91     59.15    -23.12     24.00
   28.0655     57.45     59.34    -22.77     24.00
   28.0757     58.75     59.53    -21.67     24.00
   28.0859     58.34     59.72    -22.27     24.00
   28.0960     58.87     59.91    -21.93     24.00
   28.1062     58.12     60.10    -22.87     24.00
   28.1164     59.02     60.29    -22.15     24.00
   28.1265     58.70     60.47    -22.66     24.00
   28.1367     59.94     60.66    -21.60     24.00
   28.1469     59.59     60.84    -22.13     24.00
   28.1570     60.79     61.01    -21.11     24.00
   28.1672     59.44     61.19    -22.63     24.00
   28.1774     60.31     61.36    -21.94     24.00
   28.1875     59.66     61.53    -22.76     24.00
   28.1977     60.99     61.70    -21.59     24.00
   28.2079     61.13     61.86    -21.62     24.00
   28.2180     61.77     62.02    -21.14     24.00
   28.2282     60.76     62.18    -22.31     24.00
   28.2383     61.88     62.34    -21.34     24.00
   28.2485     62.26     62.49    -21.11     24.00
   28.2587     63.31     62.63    -20.21     24.00
   28.2688     62.96     62.77    -20.70     24.00
   28.2790     62.36     62.91    -21.43     24.00
   28.2892     63.46     63.04    -20.47     24.00
   28.2993     63.21     63.17    -20.85     24.00
   28.3095     64.76     63.30    -19.42     24.00
   28.3197     63.12     63.41    -21.18     24.00
   28.3298     63.15     63.53    -21.26     24.00
   28.3400     63.91     63.64    -20.61     24.00
   28.3502     62.95     63.74    -21.67     24.00
   28.3603     63.93     63.84    -20.79     24.00
   28.3705     64.81     63.93    -20.00     24.00
   28.3806     65.11     64.01    -19.79     24.00
   28.3908     65.54     64.09    -19.44     24.00
   28.4010     64.57     64.17    -20.48     24.00
   28.4111     65.05     64.23    -20.07     24.00
   28.4213     66.02     64.29    -19.16     24.00
   28.4315     65.65     64.35    -19.58     24.00
   28.4416     64.49     64.40    -20.79     24.00
   28.4518     65.98     64.44    -19.34     24.00
   28.4620     65.11     64.48    -20.25     24.00
   28.4721     65.16     64.51    -20.23     24.00
   28.4823     65.32     64.53    -20.09     24.00
   28.4925     64.74     64.54    -20.69     24.00
   28.5026     66.48     64.55    -18.96     24.00
   28.5128     65.84     64.55    -19.60     24.00
   28.5230     65.08     64.55    -20.35     24.00
   28.5331     66.62     64.54    -18.80     24.00
   28.5433     65.73     64.52    -19.67     24.00
   28.5534     65.03     64.49    -20.35     24.00
   28.5636     65.25     64.46    -20.10     24.00
   28.5738     66.09     64.42    -19.22     24.00
   28.5839     65.35     64.38    -19.91     24.00
   28.5941     66.91     64.33    -18.30     24.00
   28.6043     65.62     64.27    -19.53     24.00
   28.6144     64.39     64.20    -20.70     24.00
   28.6246     66.32     64.13    -18.70     24.00
   28.6348     65.82     64.05    -19.12     24.00
   28.6449     64.83     63.97    -20.02     24.00
   28.6551     64.31     63.88    -20.45     24.00
   28.6653     66.05     63.78    -18.62     24.00
   28.6754     64.30     63.68    -20.27     24.00
   28.6856     65.87     63.57    -18.59     24.00
   28.6957     65.82     63.46    -18.53     24.00
   28.7059     64.65     63.34    -19.58     24.00
   28.7161     64.81     63.22    -19.29     24.00
   28.7262     64.70     63.09    -19.27     24.00
   28.7364     64.05     62.96    -19.79     24.00
   28.7466     62.95     62.82    -20.75     24.00
   28.7567     62.18     62.67    -21.38     24.00
   28.7669     62.56     62.52    -20.85     24.00
   28.7771     62.71     62.37    -20.54     24.00
   28.7872     62.21     62.21    -20.89     24.00
   28.7974     63.05     62.05    -19.88     24.00
   28.8076     62.96     61.88    -19.81     24.00
   28.8177     61.79     61.72    -20.81     24.00
   28.8279     62.13     61.54    -20.30     24.00
   28.8381     61.71     61.36    -20.54     24.00
   28.8482     63.91     61.19    -18.16     24.00
   28.8584     61.41     61.00    -20.48     24.00
   28.8685     59.59     60.82    -22.11     24.00
   28.8787     60.82     60.63    -20.69     24.00
   28.8889     61.12     60.44    -20.20     24.00
   28.8990     60.57     60.24    -20.56     24.00
   28.9092     59.59     60.05    -21.34     24.00
   28.9194     59.86     59.85    -20.87     24.00
   28.9295     59.99     59.65    -20.54     24.00
   28.9397     59.05     59.45    -21.28     24.00
   28.9499     59.26     59.24    -20.87     24.00
   28.9600     58.98     59.04    -20.94     24.00
   28.9702     58.74     58.83    -20.97     24.00
   28.9804     58.45     58.62    -21.06     24.00
   28.9905     57.35     58.41    -21.95     24.00
   29.0007     57.81     58.20    -21.28     24.00
   29.0108     57.65     57.99    -21.23     24.00
   29.0210     57.39     57.78    -21.28     24.00
   29.0312     57.34     57.57    -21.11     24.00
   29.0413     57.08     57.36    -21.16     24.00
   29.0515     56.21     57.15    -21.82     24.00
   29.0617     57.25     56.93    -20.57     24.00
   29.0718     56.84     56.72    -20.77     24.00
   29.0820     55.48     56.51    -21.91     24.00
   29.0922     56.95     56.30    -20.23     24.00
   29.1023     56.96     56.09    -20.01     24.00
   29.1125     55.43     55.87    -21.33     24.00
   29.1227     55.97     55.66    -20.58     24.00
   29.1328     53.07     55.45    -23.27     24.00
   29.1430     54.71     55.24    -21.42     24.00
   29.1531     54.74     55.04    -21.18     24.00
   29.1633     54.03     54.83    -21.68     24.00
   29.1735     53.59     54.62    -21.92     24.00
   29.1836     54.08     54.42    -21.22     24.00
   29.1938     53.27     54.22    -21.83     24.00
   29.2040     52.81     54.01    -22.09     24.00
   29.2141     52.91     53.81    -21.79     24.00
   29.2243     52.16     53.61    -22.34     24.00
   29.2345     52.38     53.41    -21.92     24.00
   29.2446     53.45     53.22    -20.65     24.00
   29.2548     53.87     53.03    -20.04     24.00
   29.2650     52.19     52.83    -21.53     24.00
   29.2751     52.37     52.64    -21.16     24.00
   29.2853     50.87     52.45    -22.47     24.00
   29.2955     51.89     52.27    -21.26     24.00
   29.3056     51.92     52.08    -21.05     24.00
   29.3158     50.63     51.90    -22.15     24.00
   29.3259     50.53     51.72    -22.07     24.00
   29.3361     51.49     51.54    -20.93     24.00
   29.3463     49.96     51.36    -22.29     24.00
   29.3564     50.97     51.19    -21.10     24.00
   29.3666     50.14     51.02    -21.76     24.00
   29.3768     50.79     50.85    -20.94     24.00
   29.3869     50.40     50.68    -21.16     24.00
   29.3971     49.81     50.51    -21.59     24.00
   29.4073     49.78     50.35    -21.45     24.00
   29.4174     49.70     50.19    -21.37     24.00
   29.4276     50.08     50.03    -20.84     24.00
   29.4378     49.90     49.87    -20.86     24.00
   29.4479     48.82     49.72    -21.79     24.00
   29.4581     49.13     49.57    -21.32     24.00
   29.4682     48.07     49.42    -22.24     24.00
   29.4784     49.45     49.27    -20.71     24.00
   29.4886     48.57     49.13    -21.44     24.00
   29.4987     48.70     48.99    -21.17     24.00
   29.5089     48.18     48.85    -21.55     24.00
   29.5191     48.60     48.71    -20.99     24.00
   29.5292     47.23     48.58    -22.23     24.00
   29.5394     48.93     48.44    -20.40     24.00
   29.5496     48.20     48.31    -21.00     24.00
   29.5597     47.45     48.18    -21.62     24.00
   29.5699     47.62     48.06    -21.32     24.00
   29.5801     48.40     47.93    -20.42     24.00
   29.5902     47.50     47.81    -21.20     24.00
   29.6004     47.49     47.69    -21.09     24.00
   29.6106     47.21     47.57    -21.25     24.00
   29.6207     46.41     47.46    -21.93     24.00
   29.6309     46.44     47.35    -21.79     24.00
   29.6410     47.07     47.24    -21.05     24.00
   29.6512     46.38     47.13    -21.63     24.00
   29.6614     46.48     47.02    -21.42     24.00
   29.6715     46.88     46.91    -20.92     24.00
   29.6817     47.00     46.81    -20.69     24.00
   29.6919     45.70     46.71    -21.89     24.00
   29.7020     45.93     46.61    -21.56     24.00
   29.7122     45.74     46.51    -21.65     24.00
   29.7224     46.02     46.41    -21.27     24.00
   29.7325     45.95     46.31    -21.25     24.00
   29.7427     46.24     46.22    -20.86     24.00
   29.7529     45.96     46.13    -21.05     24.00
   29.7630     46.16     46.04    -20.76     24.00
   29.7732     45.84     45.95    -20.99     24.00
   29.7833     45.08     45.86    -21.66     24.00
   29.7935     46.27     45.77    -20.39     24.00
   29.8037     46.51     45.69    -20.06     24.00
   29.8138     45.59     45.60    -20.90     24.00
   29.8240     46.76     45.52    -19.64     24.00
   29.8342     45.39     45.44    -20.93     24.00
   29.8443     45.16     45.36    -21.08     24.00
   29.8545     45.14     45.27    -21.02     24.00
   29.8647     44.96     45.20    -21.12     24.00
   29.8748     44.34     45.12    -21.66     24.00
   29.8850     45.58     45.04    -20.34     24.00
   29.8952     45.12     44.96    -20.73     24.00
   29.9053     45.17     44.89    -20.60     24.00
   29.9155     44.42     44.81    -21.28     24.00
   29.9257     45.35     44.74    -20.27     24.00
   29.9358     44.83     44.66    -20.72     24.00
   29.9460     44.97     44.59    -20.50     24.00
   29.9561     44.66     44.52    -20.74     24.00
   29.9663     45.51     44.45    -19.82     24.00
   29.9765     45.09     44.37    -20.17     24.00
   29.9866     44.57     44.30    -20.62     24.00
   29.9968     44.22     44.23    -20.90     24.00
   30.0070     44.84     44.16    -20.20     24.00
   30.0171     44.51     44.09    -20.46     24.00
   30.0273     43.93     44.02    -20.97     24.00
   30.0375     42.76     43.95    -22.07     24.00
   30.0476     43.02     43.88    -21.74     24.00
   30.0578     45.18     43.81    -19.51     24.00
   30.0680     44.84     43.74    -19.78     24.00
   30.0781     44.06     43.67    -20.49     24.00
   30.0883     43.70     43.60    -20.78     24.00
   30.0984     43.71     43.53    -20.71     24.00
   30.1086     44.01     43.46    -20.34     24.00
   30.1188     43.92     43.39    -20.36     24.00
   30.1289     42.51     43.32    -21.70     24.00
   30.1391     42.94     43.25    -21.20     24.00
   30.1493     43.38     43.18    -20.69     24.00
   30.1594     42.99     43.11    -21.01     24.00
   30.1696     42.12     43.04    -21.80     24.00
   30.1798     43.49     42.97    -20.36     24.00
   30.1899     43.19     42.90    -20.59     24.00
   30.2001     42.34     42.83    -21.37     24.00
   30.2103     43.01     42.76    -20.63     24.00
   30.2204     42.63     42.68    -20.94     24.00
   30.2306     41.83     42.61    -21.67     24.00
   30.2408     41.82     42.54    -21.60     24.00
   30.2509     42.80     42.47    -20.55     24.00
   30.2611     42.80     42.39    -20.48     24.00
   30.2712     42.61     42.32    -20.60     24.00
   30.2814     41.34     42.25    -21.79     24.00
   30.2916     41.80     42.17    -21.26     24.00
   30.3017     41.05     42.10    -21.93     24.00
   30.3119     42.38     42.02    -20.53     24.00
   30.3221     41.79     41.95    -21.04     24.00
   30.3322     42.03     41.87    -20.73     24.00
   30.3424     41.27     41.80    -21.41     24.00
   30.3526     40.31     41.72    -22.29     24.00
   30.3627     41.80     41.64    -20.73     24.00
   30.3729     41.18     41.57    -21.27     24.00
   30.3831     40.62     41.49    -21.75     24.00
   30.3932     40.59     41.41    -21.71     24.00
   30.4034     42.16     41.33    -20.06     24.00
   30.4135     40.33     41.26    -21.81     24.00
   30.4237     41.40     41.18    -20.66     24.00
   30.4339     40.26     41.10    -21.72     24.00
   30.4440     40.10     41.02    -21.80     24.00
   30.4542     40.83     40.94    -20.99     24.00
   30.4644     40.55     40.86    -21.19     24.00
   30.4745     40.55     40.78    -21.11     24.00
   30.4847     39.46     40.69    -22.12     24.00
   30.4949     40.02     40.61    -21.48     24.00
   30.5050     39.42     40.53    -22.00     24.00
   30.5152     40.21     40.45    -21.12     24.00
   30.5254     39.73     40.37    -21.52     24.00
   30.5355     39.53     40.28    -21.64     24.00
   30.5457     40.69     40.20    -20.39     24.00
   30.5559     38.85     40.12    -22.15     24.00
   30.5660     39.66     40.03    -21.26     24.00
   30.5762     39.36     39.95    -21.47     24.00
   30.5863     39.59     39.87    -21.16     24.00
   30.5965     39.09     39.78    -21.58     24.00
   30.6067     38.87     39.70    -21.71     24.00
   30.6168     39.03     39.61    -21.47     24.00
   30.6270     39.45     39.53    -20.96     24.00
   30.6372     38.59     39.44    -21.74     24.00
   30.6473     38.90     39.36    -21.34     24.00
   30.6575     38.46     39.27    -21.70     24.00
   30.6677     37.43     39.19    -22.64     24.00
   30.6778     38.46     39.10    -21.53     24.00
   30.6880     37.52     39.02    -22.38     24.00
   30.6982     38.22     38.93    -21.60     24.00
   30.7083     38.73     38.85    -21.00     24.00
   30.7185     37.68     38.76    -21.97     24.00
   30.7286     39.30     38.68    -20.26     24.00
   30.7388     38.54     38.59    -20.93     24.00
   30.7490     37.13     38.50    -22.26     24.00
   30.7591     37.31     38.42    -21.99     24.00
   30.7693     37.43     38.33    -21.79     24.00
   30.7795     37.40     38.25    -21.73     24.00
   30.7896     38.70     38.16    -20.35     24.00
   30.7998     38.13     38.08    -20.83     24.00
   30.8100     36.68     37.99    -22.20     24.00
   30.8201     36.92     37.91    -21.87     24.00
   30.8303     37.02     37.82    -21.69     24.00
   30.8405     37.26     37.74    -21.36     24.00
   30.8506     37.54     37.65    -21.00     24.00
   30.8608     37.48     37.57    -20.97     24.00
   30.8710     37.46     37.48    -20.91     24.00
   30.8811     37.58     37.40    -20.70     24.00
   30.8913     37.52     37.31    -20.68     24.00
   30.9014     37.45     37.23    -20.67     24.00
   30.9116     37.41     37.15    -20.62     24.00
   30.9218     36.20     37.06    -21.75     24.00
   30.9319     36.71     36.98    -21.16     24.00
   30.9421     36.16     36.90    -21.62     24.00
   30.9523     36.68     36.82    -21.02     24.00
   30.9624     36.40     36.73    -21.22     24.00
   30.9726     36.38     36.65    -21.16     24.00
   30.9828     36.84     36.57    -20.62     24.00
   30.9929     35.80     36.49    -21.57     24.00
   31.0031     36.77     36.41    -20.52     24.00
   31.0133     36.61     36.33    -20.60     24.00
   31.0234     35.90     36.25    -21.23     24.00
   31.0336     36.65     36.17    -20.40     24.00
   31.0437     35.59     36.09    -21.39     24.00
   31.0539     35.09     36.01    -21.81     24.00
   31.0641     36.45     35.93    -20.37     24.00
   31.0742     35.75     35.86    -20.99     24.00
   31.0844     35.67     35.78    -20.99     24.00
   31.0946     35.55     35.70    -21.04     24.00
   31.1047     35.21     35.63    -21.30     24.00
   31.1149     35.82     35.55    -20.61     24.00
   31.1251     35.38     35.48    -20.98     24.00
   31.1352     35.75     35.40    -20.53     24.00
   31.1454     35.02     35.33    -21.19     24.00
   31.1556     35.77     35.25    -20.37     24.00
   31.1657     36.29     35.18    -19.77     24.00
   31.1759     35.15     35.11    -20.84     24.00
   31.1860     35.68     35.04    -20.24     24.00
   31.1962     35.86     34.96    -19.99     24.00
   31.2064     35.27     34.89    -20.51     24.00
   31.2165     34.65     34.82    -21.06     24.00
   31.2267     35.76     34.75    -19.88     24.00
   31.2369     35.04     34.69    -20.53     24.00
   31.2470     35.49     34.62    -20.01     24.00
   31.2572     35.23     34.55    -20.20     24.00
   31.2674     35.59     34.48    -19.78     24.00
   31.2775     35.60     34.42    -19.70     24.00
   31.2877     34.83     34.35    -20.40     24.00
   31.2979     35.30     34.29    -19.87     24.00
   31.3080     34.77     34.22    -20.34     24.00
   31.3182     34.60     34.16    -20.44     24.00
   31.3284     35.28     34.10    -19.70     24.00
   31.3385     35.11     34.03    -19.81     24.00
   31.3487     35.18     33.97    -19.68     24.00
   31.3588     34.55     33.91    -20.25     24.00
   31.3690     34.90     33.85    -19.84     24.00
   31.3792     35.79     33.79    -18.89     24.00
   31.3893     34.46     33.73    -20.16     24.00
   31.3995     33.91     33.68    -20.65     24.00
   31.4097     35.46     33.62    -19.04     24.00
   31.4198     34.92     33.56    -19.53     24.00
   31.4300     34.34     33.51    -20.05     24.00
   31.4402     34.78     33.45    -19.56     24.00
   31.4503     34.76     33.40    -19.52     24.00
   31.4605     34.26     33.35    -19.97     24.00
   31.4707     34.62     33.29    -19.56     24.00
   31.4808     34.27     33.24    -19.86     24.00
   31.4910     34.15     33.19    -19.93     24.00
   31.5011     35.41     33.14    -18.62     24.00
   31.5113     33.29     33.09    -20.69     24.00
   31.5215     34.29     33.04    -19.64     24.00
   31.5316     34.08     33.00    -19.80     24.00
   31.5418     33.73     32.95    -20.10     24.00
   31.5520     34.59     32.90    -19.20     24.00
   31.5621     34.76     32.86    -18.98     24.00
   31.5723     33.99     32.81    -19.71     24.00
   31.5825     34.97     32.77    -18.68     24.00
   31.5926     33.37     32.73    -20.24     24.00
   31.6028     34.38     32.69    -19.19     24.00
   31.6130     33.32     32.64    -20.21     24.00
   31.6231     33.51     32.60    -19.98     24.00
   31.6333     33.39     32.56    -20.06     24.00
   31.6435     33.41     32.53    -20.00     24.00
   31.6536     33.63     32.49    -19.74     24.00
   31.6638     34.48     32.45    -18.85     24.00
   31.6739     34.34     32.41    -18.96     24.00
   31.6841     35.18     32.38    -18.08     24.00
   31.6943     34.10     32.34    -19.13     24.00
   31.7044     33.74     32.31    -19.45     24.00
   31.7146     33.13     32.28    -20.03     24.00
   31.7248     33.53     32.24    -19.60     24.00
   31.7349     34.52     32.21    -18.58     24.00
   31.7451     33.57     32.18    -19.50     24.00
   31.7553     33.85     32.15    -19.19     24.00
   31.7654     33.38     32.12    -19.63     24.00
   31.7756     33.63     32.10    -19.35     24.00
   31.7858     33.64     32.07    -19.31     24.00
   31.7959     34.60     32.04    -18.33     24.00
   31.8061     33.43     32.02    -19.47     24.00
   31.8162     33.16     31.99    -19.71     24.00
   31.8264     33.60     31.97    -19.25     24.00
   31.8366     33.97     31.94    -18.86     24.00
   31.8467     33.54     31.92    -19.26     24.00
   31.8569     33.37     31.90    -19.41     24.00
   31.8671     33.70     31.88    -19.06     24.00
   31.8772     33.10     31.86    -19.64     24.00
   31.8874     33.82     31.84    -18.90     24.00
   31.8976     33.29     31.82    -19.41     24.00
   31.9077     33.73     31.80    -18.95     24.00
   31.9179     34.12     31.78    -18.54     24.00
   31.9281     33.27     31.76    -19.38     24.00
   31.9382     33.19     31.75    -19.44     24.00
   31.9484     32.51     31.73    -20.11     24.00
   31.9586     34.04     31.72    -18.56     24.00
   31.9687     33.63     31.70    -18.96     24.00
   31.9789     34.02     31.69    -18.56     24.00
   31.9890     33.10     31.68    -19.46     24.00
   31.9992     33.35     31.67    -19.20     24.00
   32.0094     34.05     31.66    -18.49     24.00
   32.0195     33.31     31.65    -19.22     24.00
   32.0297     33.58     31.64    -18.94     24.00
   32.0399     34.24     31.63    -18.27     24.00
   32.0500     33.68     31.62    -18.82     24.00
   32.0602     32.15     31.61    -20.35     24.00
   32.0704     34.35     31.60    -18.14     24.00
   32.0805     33.60     31.60    -18.88     24.00
   32.0907     32.62     31.59    -19.86     24.00
   32.1009     33.67     31.59    -18.80     24.00
   32.1110     33.97     31.58    -18.50     24.00
   32.1212     33.04     31.58    -19.42     24.00
   32.1313     32.51     31.58    -19.95     24.00
   32.1415     34.12     31.57    -18.34     24.00
   32.1517     32.45     31.57    -20.01     24.00
   32.1618     33.04     31.57    -19.41     24.00
   32.1720     33.67     31.57    -18.78     24.00
   32.1822     34.24     31.57    -18.21     24.00
   32.1923     33.73     31.57    -18.72     24.00
   32.2025     33.40     31.57    -19.05     24.00
   32.2127     33.45     31.57    -19.01     24.00
   32.2228     33.57     31.57    -18.89     24.00
   32.2330     33.12     31.58    -19.34     24.00
   32.2432     33.35     31.58    -19.11     24.00
   32.2533     33.16     31.58    -19.31     24.00
   32.2635     34.17     31.59    -18.30     24.00
   32.2737     33.54     31.59    -18.93     24.00
   32.2838     32.51     31.60    -19.97     24.00
   32.2940     32.79     31.60    -19.70     24.00
   32.3041     33.99     31.61    -18.50     24.00
   32.3143     34.06     31.61    -18.44     24.00
   32.3245     33.52     31.62    -18.98     24.00
   32.3346     32.59     31.63    -19.92     24.00
   32.3448     32.85     31.64    -19.67     24.00
   32.3550     32.77     31.64    -19.76     24.00
   32.3651     33.60     31.65    -18.94     24.00
   32.3753     33.57     31.66    -18.97     24.00
   32.3855     32.65     31.67    -19.90     24.00
   32.3956     33.23     31.68    -19.33     24.00
   32.4058     33.12     31.69    -19.45     24.00
   32.4160     32.91     31.70    -19.67     24.00
   32.4261     33.16     31.71    -19.43     24.00
   32.4363     33.17     31.72    -19.44     24.00
   32.4464     33.32     31.73    -19.30     24.00
   32.4566     32.88     31.74    -19.75     24.00
   32.4668     32.69     31.76    -19.95     24.00
   32.4769     33.45     31.77    -19.20     24.00
   32.4871     32.59     31.78    -20.07     24.00
   32.4973     33.46     31.79    -19.22     24.00
   32.5074     33.02     31.81    -19.67     24.00
   32.5176     32.64     31.82    -20.06     24.00
   32.5278     33.16     31.83    -19.56     24.00
   32.5379     33.01     31.85    -19.72     24.00
   32.5481     32.53     31.86    -20.21     24.00
   32.5583     33.07     31.87    -19.69     24.00
   32.5684     33.30     31.89    -19.47     24.00
   32.5786     32.85     31.90    -19.94     24.00
   32.5888     33.02     31.92    -19.78     24.00
   32.5989     33.11     31.93    -19.71     24.00
   32.6091     32.70     31.95    -20.13     24.00
   32.6192     32.65     31.96    -20.20     24.00
   32.6294     33.16     31.98    -19.70     24.00
   32.6396     32.71     31.99    -20.17     24.00
   32.6497     32.77     32.01    -20.12     24.00
   32.6599     32.54     32.02    -20.37     24.00
   32.6701     31.91     32.04    -21.01     24.00
   32.6802     33.24     32.05    -19.70     24.00
   32.6904     32.98     32.07    -19.97     24.00
   32.7006     33.24     32.08    -19.73     24.00
   32.7107     33.30     32.10    -19.68     24.00
   32.7209     32.58     32.11    -20.42     24.00
   32.7311     32.43     32.13    -20.58     24.00
   32.7412     32.60     32.14    -20.43     24.00
   32.7514     32.34     32.16    -20.70     24.00
   32.7615     32.52     32.18    -20.54     24.00
   32.7717     32.34     32.19    -20.73     24.00
   32.7819     32.47     32.21    -20.62     24.00
   32.7920     32.51     32.22    -20.59     24.00
   32.8022     33.63     32.23    -19.49     24.00
   32.8124     33.27     32.25    -19.86     24.00
   32.8225     33.33     32.26    -19.82     24.00
   32.8327     33.12     32.28    -20.04     24.00
   32.8429     32.84     32.29    -20.34     24.00
   32.8530     31.78     32.31    -21.41     24.00
   32.8632     32.31     32.32    -20.89     24.00
   32.8734     32.52     32.33    -20.70     24.00
   32.8835     32.50     32.35    -20.73     24.00
   32.8937     33.46     32.36    -19.78     24.00
   32.9039     32.70     32.37    -20.56     24.00
   32.9140     32.03     32.38    -21.24     24.00
   32.9242     32.29     32.40    -20.99     24.00
   32.9343     32.58     32.41    -20.71     24.00
   32.9445     32.23     32.42    -21.07     24.00
   32.9547     32.52     32.43    -20.80     24.00
   32.9648     33.60     32.44    -19.73     24.00
   32.9750     32.28     32.45    -21.06     24.00
   32.9852     32.93     32.46    -20.42     24.00
   32.9953     32.86     32.47    -20.50     24.00
   33.0055     31.93     32.48    -21.44     24.00
   33.0157     32.11     32.49    -21.27     24.00
   33.0258     32.88     32.50    -20.50     24.00
   33.0360     33.30     32.51    -20.09     24.00
   33.0462     33.52     32.52    -19.88     24.00
   33.0563     33.18     32.52    -20.23     24.00
   33.0665     33.12     32.53    -20.29     24.00
   33.0766     32.29     32.54    -21.13     24.00
   33.0868     32.90     32.54    -20.53     24.00
   33.0970     32.15     32.55    -21.28     24.00
   33.1071     34.07     32.55    -19.37     24.00
   33.1173     33.47     32.56    -19.97     24.00
   33.1275     33.18     32.56    -20.27     24.00
   33.1376     32.79     32.57    -20.66     24.00
   33.1478     32.92     32.57    -20.53     24.00
   33.1580     32.55     32.57    -20.91     24.00
   33.1681     32.37     32.57    -21.09     24.00
   33.1783     33.10     32.57    -20.36     24.00
   33.1885     32.85     32.57    -20.61     24.00
   33.1986     32.96     32.58    -20.50     24.00
   33.2088     32.77     32.57    -20.69     24.00
   33.2189     32.83     32.57    -20.63     24.00
   33.2291     32.75     32.57    -20.71     24.00
   33.2393     33.17     32.57    -20.28     24.00
   33.2494     32.41     32.57    -21.04     24.00
   33.2596     32.68     32.56    -20.77     24.00
   33.2698     33.78     32.56    -19.66     24.00
   33.2799     33.00     32.55    -20.44     24.00
   33.2901     33.58     32.55    -19.85     24.00
   33.3003     32.88     32.54    -20.55     24.00
   33.3104     33.11     32.54    -20.31     24.00
   33.3206     32.82     32.53    -20.59     24.00
   33.3308     32.64     32.52    -20.77     24.00
   33.3409     33.07     32.51    -20.33     24.00
   33.3511     33.38     32.50    -20.01     24.00
   33.3613     32.96     32.49    -20.42     24.00
   33.3714     33.51     32.48    -19.86     24.00
   33.3816     33.32     32.47    -20.04     24.00
   33.3917     32.74     32.46    -20.60     24.00
   33.4019     32.91     32.45    -20.42     24.00
   33.4121     33.27     32.43    -20.05     24.00
   33.4222     32.84     32.42    -20.47     24.00
   33.4324     33.65     32.41    -19.64     24.00
   33.4426     32.52     32.39    -20.76     24.00
   33.4527     34.15     32.38    -19.11     24.00
   33.4629     32.80     32.36    -20.44     24.00
   33.4731     32.55     32.34    -20.68     24.00
   33.4832     33.55     32.33    -19.66     24.00
   33.4934     33.30     32.31    -19.89     24.00
   33.5036     32.88     32.29    -20.29     24.00
   33.5137     33.07     32.27    -20.08     24.00
   33.5239     33.44     32.25    -19.69     24.00
   33.5340     32.51     32.23    -20.60     24.00
   33.5442     33.28     32.21    -19.81     24.00
   33.5544     32.62     32.19    -20.45     24.00
   33.5645     32.37     32.16    -20.68     24.00
   33.5747     33.06     32.14    -19.96     24.00
   33.5849     32.57     32.12    -20.43     24.00
   33.5950     32.54     32.09    -20.44     24.00
   33.6052     32.43     32.07    -20.52     24.00
   33.6154     32.84     32.04    -20.09     24.00
   33.6255     32.50     32.02    -20.40     24.00
   33.6357     31.71     31.99    -21.17     24.00
   33.6459     31.69     31.96    -21.16     24.00
   33.6560     30.93     31.94    -21.89     24.00
   33.6662     31.47     31.91    -21.32     24.00
   33.6764     32.43     31.88    -20.34     24.00
   33.6865     31.90     31.85    -20.84     24.00
   33.6967     31.73     31.82    -20.98     24.00
   33.7068     32.61     31.79    -20.07     24.00
   33.7170     32.48     31.76    -20.17     24.00
   33.7272     31.65     31.73    -20.97     24.00
   33.7373     31.43     31.70    -21.16     24.00
   33.7475     32.19     31.67    -20.37     24.00
   33.7577     31.40     31.64    -21.12     24.00
   33.7678     30.95     31.61    -21.54     24.00
   33.7780     31.45     31.57    -21.01     24.00
   33.7882     30.39     31.54    -22.04     24.00
   33.7983     31.11     31.51    -21.28     24.00
   33.8085     30.48     31.47    -21.88     24.00
   33.8187     30.59     31.44    -21.73     24.00
   33.8288     30.76     31.41    -21.53     24.00
   33.8390     30.35     31.37    -21.91     24.00
   33.8491     30.82     31.34    -21.40     24.00
   33.8593     30.68     31.30    -21.51     24.00
   33.8695     30.33     31.27    -21.82     24.00
   33.8796     30.13     31.23    -21.98     24.00
   33.8898     30.84     31.19    -21.24     24.00
   33.9000     29.72     31.16    -22.32     24.00
   33.9101     29.88     31.12    -22.13     24.00
   33.9203     29.71     31.08    -22.26     24.00
   33.9305     29.56     31.05    -22.37     24.00
   33.9406     29.52     31.01    -22.37     24.00
   33.9508     30.07     30.97    -21.79     24.00
   33.9610     30.02     30.93    -21.80     24.00
   33.9711     29.62     30.90    -22.16     24.00
   33.9813     29.83     30.86    -21.91     24.00
   33.9915     29.54     30.82    -22.16     24.00
   34.0016     29.08     30.78    -22.59     24.00
   34.0118     29.38     30.74    -22.25     24.00
   34.0219     29.73     30.70    -21.86     24.00
   34.0321     29.73     30.67    -21.82     24.00
   34.0423     29.50     30.63    -22.01     24.00
   34.0524     28.97     30.59    -22.50     24.00
   34.0626     29.40     30.55    -22.03     24.00
   34.0728     28.96     30.51    -22.43     24.00
   34.0829     28.96     30.47    -22.39     24.00
   34.0931     28.81     30.43    -22.51     24.00
   34.1033     28.45     30.39    -22.83     24.00
   34.1134     28.44     30.35    -22.80     24.00
   34.1236     28.93     30.31    -22.27     24.00
   34.1338     28.91     30.27    -22.25     24.00
   34.1439     28.30     30.23    -22.82     24.00
   34.1541     28.76     30.19    -22.32     24.00
   34.1642     28.93     30.15    -22.11     24.00
   34.1744     28.80     30.12    -22.20     24.00
   34.1846     28.21     30.08    -22.75     24.00
   34.1947     28.46     30.04    -22.46     24.00
   34.2049     29.16     30.00    -21.72     24.00
   34.2151     28.19     29.96    -22.65     24.00
   34.2252     28.65     29.92    -22.15     24.00
   34.2354     27.92     29.88    -22.84     24.00
   34.2456     28.39     29.84    -22.33     24.00
   34.2557     28.19     29.80    -22.49     24.00
   34.2659     29.33     29.76    -21.31     24.00
   34.2761     28.31     29.72    -22.30     24.00
   34.2862     27.52     29.68    -23.05     24.00
   34.2964     27.77     29.64    -22.76     24.00
   34.3066     28.02     29.61    -22.47     24.00
   34.3167     28.04     29.57    -22.41     24.00
   34.3269     26.97     29.53    -23.44     24.00
   34.3370     27.13     29.49    -23.24     24.00
   34.3472     28.47     29.45    -21.87     24.00
   34.3574     27.46     29.41    -22.84     24.00
   34.3675     28.02     29.38    -22.24     24.00
   34.3777     27.01     29.34    -23.21     24.00
   34.3879     27.08     29.30    -23.10     24.00
   34.3980     27.96     29.26    -22.19     24.00
   34.4082     28.09     29.22    -22.02     24.00
   34.4184     26.88     29.19    -23.19     24.00
   34.4285     27.32     29.15    -22.71     24.00
   34.4387     27.58     29.11    -22.42     24.00
   34.4489     27.93     29.08    -22.03     24.00
   34.4590     27.65     29.04    -22.27     24.00
   34.4692     26.96     29.00    -22.93     24.00
   34.4793     27.20     28.97    -22.65     24.00
   34.4895     27.79     28.93    -22.03     24.00
   34.4997     27.17     28.90    -22.61     24.00
   34.5098     27.18     28.86    -22.56     24.00
   34.5200     26.39     28.83    -23.32     24.00
   34.5302     27.45     28.79    -22.22     24.00
   34.5403     27.70     28.76    -21.94     24.00
   34.5505     27.60     28.72    -22.00     24.00
   34.5607     27.76     28.69    -21.81     24.00
   34.5708     26.71     28.65    -22.83     24.00
   34.5810     26.45     28.62    -23.05     24.00
   34.5912     27.49     28.58    -21.98     24.00
   34.6013     26.55     28.55    -22.89     24.00
   34.6115     27.40     28.52    -22.00     24.00
   34.6217     26.84     28.49    -22.53     24.00
   34.6318     26.60     28.45    -22.74     24.00
   34.6420     27.66     28.42    -21.64     24.00
   34.6521     27.53     28.39    -21.74     24.00
   34.6623     27.10     28.36    -22.14     24.00
   34.6725     26.47     28.32    -22.74     24.00
   34.6826     27.63     28.29    -21.55     24.00
   34.6928     26.59     28.26    -22.56     24.00
   34.7030     27.83     28.23    -21.28     24.00
   34.7131     27.01     28.20    -22.07     24.00
   34.7233     26.94     28.17    -22.11     24.00
   34.7335     27.04     28.14    -21.98     24.00
   34.7436     27.18     28.11    -21.81     24.00
   34.7538     26.37     28.08    -22.59     24.00
   34.7640     27.29     28.05    -21.64     24.00
   34.7741     26.43     28.02    -22.48     24.00
   34.7843     26.35     27.99    -22.53     24.00
   34.7944     27.36     27.96    -21.49     24.00
   34.8046     26.95     27.94    -21.87     24.00
   34.8148     26.82     27.91    -21.97     24.00
   34.8249     25.87     27.88    -22.90     24.00
   34.8351     26.73     27.85    -22.01     24.00
   34.8453     26.20     27.83    -22.51     24.00
   34.8554     26.77     27.80    -21.91     24.00
   34.8656     27.15     27.77    -21.51     24.00
   34.8758     27.27     27.75    -21.36     24.00
   34.8859     25.98     27.72    -22.63     24.00
   34.8961     26.74     27.70    -21.84     24.00
   34.9063     26.16     27.67    -22.39     24.00
   34.9164     25.91     27.65    -22.62     24.00
   34.9266     25.88     27.62    -22.62     24.00
   34.9367     26.91     27.60    -21.57     24.00
   34.9469     27.01     27.57    -21.45     24.00
   34.9571     26.74     27.55    -21.69     24.00
   34.9672     26.18     27.52    -22.23     24.00
   34.9774     26.49     27.50    -21.89     24.00
   34.9876     26.36     27.48    -22.00     24.00
   34.9977     26.65     27.45    -21.69     24.00
   35.0079     26.93     27.43    -21.39     24.00
   35.0181     27.29     27.41    -21.00     24.00
   35.0282     25.96     27.39    -22.31     24.00
   35.0384     26.05     27.36    -22.20     24.00
   35.0486     26.10     27.34    -22.13     24.00
   35.0587     26.08     27.32    -22.13     24.00
   35.0689     26.05     27.30    -22.13     24.00
   35.0791     26.18     27.28    -21.98     24.00
   35.0892     26.27     27.26    -21.87     24.00
   35.0994     26.35     27.24    -21.77     24.00
   35.1095     26.31     27.22    -21.79     24.00
   35.1197     26.03     27.20    -22.05     24.00
   35.1299     26.47     27.18    -21.59     24.00
   35.1400     26.26     27.16    -21.78     24.00
   35.1502     26.10     27.14    -21.93     24.00
   35.1604     26.37     27.12    -21.64     24.00
   35.1705     26.23     27.10    -21.76     24.00
   35.1807     25.99     27.09    -21.98     24.00
   35.1909     25.87     27.07    -22.08     24.00
   35.2010     26.82     27.05    -21.11     24.00
   35.2112     26.01     27.03    -21.91     24.00
   35.2214     25.24     27.01    -22.66     24.00
   35.2315     26.27     27.00    -21.61     24.00
   35.2417     26.17     26.98    -21.69     24.00
   35.2518     26.58     26.96    -21.27     24.00
   35.2620     25.67     26.95    -22.16     24.00
   35.2722     25.62     26.93    -22.20     24.00
   35.2823     26.27     26.92    -21.53     24.00
   35.2925     25.73     26.90    -22.05     24.00
   35.3027     26.38     26.88    -21.39     24.00
   35.3128     26.02     26.87    -21.73     24.00
   35.3230     25.77     26.85    -21.97     24.00
   35.3332     25.73     26.84    -21.99     24.00
   35.3433     25.05     26.82    -22.66     24.00
   35.3535     25.93     26.81    -21.76     24.00
   35.3637     26.07     26.79    -21.61     24.00
   35.3738     26.10     26.78    -21.56     24.00
   35.3840     25.99     26.77    -21.66     24.00
   35.3942     26.44     26.75    -21.20     24.00
   35.4043     25.83     26.74    -21.79     24.00
   35.4145     25.98     26.73    -21.63     24.00
   35.4246     26.74     26.71    -20.86     24.00
   35.4348     25.93     26.70    -21.65     24.00
   35.4450     26.43     26.69    -21.14     24.00
   35.4551     26.13     26.67    -21.43     24.00
   35.4653     25.90     26.66    -21.65     24.00
   35.4755     26.46     26.65    -21.07     24.00
   35.4856     25.46     26.64    -22.06     24.00
   35.4958     25.26     26.63    -22.25     24.00
   35.5060     25.36     26.61    -22.14     24.00
   35.5161     25.79     26.60    -21.70     24.00
   35.5263     25.74     26.59    -21.74     24.00
   35.5365     26.13     26.58    -21.33     24.00
   35.5466     25.57     26.57    -21.88     24.00
   35.5568     25.66     26.56    -21.78     24.00
   35.5669     25.73     26.55    -21.70     24.00
   35.5771     25.93     26.54    -21.49     24.00
   35.5873     25.68     26.53    -21.73     24.00
   35.5974     26.41     26.52    -20.99     24.00
   35.6076     25.20     26.51    -22.19     24.00
   35.6178     25.49     26.50    -21.89     24.00
   35.6279     25.58     26.49    -21.79     24.00
   35.6381     25.38     26.48    -21.98     24.00
   35.6483     25.35     26.47    -22.00     24.00
   35.6584     25.77     26.46    -21.57     24.00
   35.6686     25.72     26.45    -21.61     24.00
   35.6788     26.15     26.44    -21.17     24.00
   35.6889     25.84     26.43    -21.47     24.00
   35.6991     25.10     26.42    -22.20     24.00
   35.7093     24.97     26.41    -22.33     24.00
   35.7194     25.12     26.40    -22.17     24.00
   35.7296     25.37     26.39    -21.91     24.00
   35.7397     25.24     26.39    -22.03     24.00
   35.7499     25.67     26.38    -21.59     24.00
   35.7601     25.47     26.37    -21.78     24.00
   35.7702     25.12     26.36    -22.13     24.00
   35.7804     25.05     26.35    -22.19     24.00
   35.7906     25.49     26.35    -21.74     24.00
   35.8007     25.69     26.34    -21.53     24.00
   35.8109     25.55     26.33    -21.66     24.00
   35.8211     25.26     26.32    -21.95     24.00
   35.8312     25.42     26.32    -21.78     24.00
   35.8414     26.26     26.31    -20.93     24.00
   35.8516     25.30     26.30    -21.88     24.00
   35.8617     25.07     26.29    -22.11     24.00
   35.8719     25.55     26.29    -21.62     24.00
   35.8820     25.48     26.28    -21.68     24.00
   35.8922     24.98     26.27    -22.18     24.00
   35.9024     24.95     26.27    -22.20     24.00
   35.9125     25.08     26.26    -22.06     24.00
   35.9227     25.68     26.25    -21.46     24.00
   35.9329     25.43     26.25    -21.70     24.00
   35.9430     25.46     26.24    -21.66     24.00
   35.9532     25.05     26.23    -22.07     24.00
   35.9634     25.64     26.23    -21.47     24.00
   35.9735     25.13     26.22    -21.97     24.00
   35.9837     25.30     26.21    -21.80     24.00
   35.9939     25.68     26.21    -21.41     24.00
