 => TITLE: 
 => Data file name: C:\Users\stefano\Nextcloud2\projects\programming\python\xrd-winplotr\folder\G306\G306--5-40-0.01-1000ms.xy
 => Instrm        :    1
 => Lambda(1&2)   :   1.54060  1.54060
 => Numb.of.points:      2952
 => Numb.of.peaks :         8
    2Theta     Yobs     Ycalc  Yobs-Ycal    Backg    Bragg     Posr  Intensity   FWHM    Eta
    6.1509     24.45     27.06    -23.50     26.37   18.7108      1.69     113.62  0.8771  0.0001
    6.1611     25.06     27.07    -22.89     26.37   20.3741      1.69      80.69  1.8042  0.0001
    6.1712     24.78     27.07    -23.18     26.37   22.5332      1.69      94.21  1.3676  0.0001
    6.1814     24.64     27.08    -23.32     26.37   28.5753      1.69      15.55  0.9627  0.0001
    6.1915     24.75     27.08    -23.22     26.37   29.0367      1.69      67.06  3.8370  0.0001
    6.2017     24.69     27.09    -23.28     26.37   33.1469      1.69      18.71  2.8439  0.0001
    6.2119     24.57     27.09    -23.40     26.37   17.6967      1.69      71.13  2.3439  0.0001
    6.2220     24.85     27.09    -23.13     26.37   19.6500      1.69     824.14 10.3892  0.0001
    6.2322     24.93     27.10    -23.05     26.37
    6.2424     24.97     27.10    -23.02     26.37
    6.2525     24.98     27.11    -23.01     26.37
    6.2627     25.32     27.11    -22.68     26.37
    6.2729     24.81     27.12    -23.19     26.37
    6.2830     24.98     27.12    -23.03     26.36
    6.2932     24.90     27.13    -23.11     26.36
    6.3034     25.61     27.13    -22.41     26.36
    6.3135     25.15     27.14    -22.87     26.36
    6.3237     25.25     27.14    -22.78     26.36
    6.3338     25.20     27.15    -22.83     26.36
    6.3440     24.96     27.15    -23.08     26.36
    6.3542     24.43     27.16    -23.61     26.36
    6.3643     24.52     27.16    -23.52     26.36
    6.3745     24.77     27.17    -23.28     26.36
    6.3847     24.45     27.17    -23.60     26.36
    6.3948     24.88     27.18    -23.18     26.36
    6.4050     25.68     27.18    -22.39     26.36
    6.4152     25.45     27.19    -22.62     26.36
    6.4253     25.08     27.19    -23.00     26.36
    6.4355     25.30     27.20    -22.78     26.36
    6.4457     25.20     27.20    -22.89     26.36
    6.4558     25.42     27.21    -22.67     26.35
    6.4660     25.67     27.21    -22.43     26.35
    6.4762     24.26     27.22    -23.84     26.35
    6.4863     25.96     27.22    -22.15     26.35
    6.4965     25.15     27.23    -22.96     26.35
    6.5066     24.84     27.23    -23.28     26.35
    6.5168     25.11     27.24    -23.01     26.35
    6.5270     25.23     27.24    -22.90     26.35
    6.5371     25.32     27.25    -22.81     26.35
    6.5473     25.12     27.26    -23.02     26.35
    6.5575     25.29     27.26    -22.86     26.35
    6.5676     25.65     27.27    -22.50     26.35
    6.5778     26.13     27.27    -22.03     26.35
    6.5880     25.62     27.28    -22.54     26.35
    6.5981     24.88     27.28    -23.29     26.35
    6.6083     24.88     27.29    -23.29     26.35
    6.6185     25.29     27.30    -22.89     26.35
    6.6286     25.53     27.30    -22.66     26.34
    6.6388     25.48     27.31    -22.71     26.34
    6.6489     25.83     27.31    -22.37     26.34
    6.6591     25.85     27.32    -22.35     26.34
    6.6693     25.63     27.33    -22.58     26.34
    6.6794     25.66     27.33    -22.56     26.34
    6.6896     25.10     27.34    -23.12     26.34
    6.6998     25.85     27.34    -22.38     26.34
    6.7099     26.42     27.35    -21.81     26.34
    6.7201     25.92     27.36    -22.32     26.34
    6.7303     25.74     27.36    -22.51     26.34
    6.7404     26.33     27.37    -21.92     26.34
    6.7506     25.13     27.38    -23.13     26.34
    6.7608     26.00     27.38    -22.27     26.34
    6.7709     25.67     27.39    -22.60     26.34
    6.7811     26.06     27.40    -22.22     26.34
    6.7913     25.65     27.40    -22.64     26.34
    6.8014     26.63     27.41    -21.66     26.33
    6.8116     26.95     27.41    -21.35     26.33
    6.8217     26.78     27.42    -21.53     26.33
    6.8319     25.88     27.43    -22.43     26.33
    6.8421     25.51     27.44    -22.81     26.33
    6.8522     25.88     27.44    -22.45     26.33
    6.8624     26.18     27.45    -22.15     26.33
    6.8726     26.06     27.46    -22.28     26.33
    6.8827     26.40     27.46    -21.95     26.33
    6.8929     26.20     27.47    -22.15     26.33
    6.9031     25.58     27.48    -22.78     26.33
    6.9132     25.68     27.48    -22.69     26.33
    6.9234     25.94     27.49    -22.43     26.33
    6.9336     26.11     27.50    -22.27     26.33
    6.9437     26.42     27.51    -21.97     26.33
    6.9539     25.93     27.51    -22.47     26.33
    6.9640     26.31     27.52    -22.09     26.33
    6.9742     26.63     27.53    -21.78     26.32
    6.9844     25.70     27.53    -22.72     26.32
    6.9945     26.74     27.54    -21.69     26.32
    7.0047     26.38     27.55    -22.05     26.32
    7.0149     26.62     27.56    -21.82     26.32
    7.0250     27.14     27.56    -21.31     26.32
    7.0352     25.87     27.57    -22.59     26.32
    7.0454     27.15     27.58    -21.31     26.32
    7.0555     25.88     27.59    -22.59     26.32
    7.0657     26.36     27.60    -22.12     26.32
    7.0759     26.18     27.60    -22.31     26.32
    7.0860     27.04     27.61    -21.45     26.32
    7.0962     26.65     27.62    -21.85     26.32
    7.1064     26.35     27.63    -22.16     26.32
    7.1165     26.59     27.63    -21.93     26.32
    7.1267     26.43     27.64    -22.10     26.32
    7.1368     26.59     27.65    -21.94     26.32
    7.1470     26.66     27.66    -21.88     26.31
    7.1572     27.40     27.67    -21.15     26.31
    7.1673     26.52     27.68    -22.04     26.31
    7.1775     26.72     27.68    -21.85     26.31
    7.1877     27.83     27.69    -20.75     26.31
    7.1978     27.37     27.70    -21.21     26.31
    7.2080     26.53     27.71    -22.06     26.31
    7.2182     27.26     27.72    -21.34     26.31
    7.2283     26.41     27.73    -22.20     26.31
    7.2385     27.19     27.73    -21.43     26.31
    7.2487     27.10     27.74    -21.53     26.31
    7.2588     27.36     27.75    -21.28     26.31
    7.2690     25.74     27.76    -22.90     26.31
    7.2791     27.24     27.77    -21.41     26.31
    7.2893     28.33     27.78    -20.33     26.31
    7.2995     27.25     27.79    -21.42     26.31
    7.3096     27.54     27.80    -21.14     26.30
    7.3198     27.76     27.81    -20.93     26.30
    7.3300     26.82     27.81    -21.88     26.30
    7.3401     27.49     27.82    -21.22     26.30
    7.3503     27.02     27.83    -21.70     26.30
    7.3605     27.25     27.84    -21.48     26.30
    7.3706     27.42     27.85    -21.32     26.30
    7.3808     27.60     27.86    -21.14     26.30
    7.3910     27.43     27.87    -21.32     26.30
    7.4011     27.91     27.88    -20.85     26.30
    7.4113     27.92     27.89    -20.85     26.30
    7.4215     26.86     27.90    -21.92     26.30
    7.4316     26.63     27.91    -22.16     26.30
    7.4418     26.87     27.92    -21.93     26.30
    7.4519     27.63     27.93    -21.18     26.30
    7.4621     27.63     27.94    -21.19     26.30
    7.4723     27.56     27.95    -21.27     26.30
    7.4824     27.77     27.96    -21.07     26.29
    7.4926     27.49     27.97    -21.36     26.29
    7.5028     27.93     27.98    -20.93     26.29
    7.5129     27.54     27.99    -21.33     26.29
    7.5231     26.72     28.00    -22.16     26.29
    7.5333     28.21     28.01    -20.68     26.29
    7.5434     27.85     28.02    -21.05     26.29
    7.5536     28.27     28.03    -20.64     26.29
    7.5638     27.95     28.04    -20.97     26.29
    7.5739     27.82     28.05    -21.11     26.29
    7.5841     28.48     28.06    -20.46     26.29
    7.5942     28.26     28.07    -20.69     26.29
    7.6044     27.82     28.08    -21.15     26.29
    7.6146     27.41     28.09    -21.57     26.29
    7.6247     28.29     28.10    -20.70     26.29
    7.6349     28.15     28.11    -20.85     26.29
    7.6451     27.97     28.12    -21.04     26.29
    7.6552     28.00     28.14    -21.02     26.28
    7.6654     27.99     28.15    -21.04     26.28
    7.6756     27.87     28.16    -21.17     26.28
    7.6857     28.01     28.17    -21.04     26.28
    7.6959     27.66     28.18    -21.40     26.28
    7.7061     28.13     28.19    -20.95     26.28
    7.7162     28.04     28.20    -21.05     26.28
    7.7264     27.57     28.21    -21.53     26.28
    7.7365     28.40     28.23    -20.71     26.28
    7.7467     28.52     28.24    -20.60     26.28
    7.7569     28.76     28.25    -20.37     26.28
    7.7670     28.81     28.26    -20.33     26.28
    7.7772     28.60     28.27    -20.56     26.28
    7.7874     27.07     28.28    -22.10     26.28
    7.7975     28.46     28.30    -20.72     26.28
    7.8077     29.41     28.31    -19.78     26.28
    7.8179     27.74     28.32    -21.46     26.28
    7.8280     28.16     28.33    -21.06     26.27
    7.8382     29.35     28.34    -19.88     26.27
    7.8484     28.12     28.36    -21.12     26.27
    7.8585     29.24     28.37    -20.01     26.27
    7.8687     29.69     28.38    -19.58     26.27
    7.8789     29.75     28.39    -19.53     26.27
    7.8890     29.44     28.41    -19.85     26.27
    7.8992     28.39     28.42    -20.91     26.27
    7.9093     29.11     28.43    -20.20     26.27
    7.9195     29.09     28.44    -20.24     26.27
    7.9297     29.43     28.46    -19.91     26.27
    7.9398     28.85     28.47    -20.50     26.27
    7.9500     29.39     28.48    -19.98     26.27
    7.9602     30.09     28.50    -19.29     26.27
    7.9703     28.89     28.51    -20.50     26.27
    7.9805     29.15     28.52    -20.26     26.27
    7.9907     29.05     28.53    -20.37     26.27
    8.0008     29.07     28.55    -20.36     26.26
    8.0110     29.20     28.56    -20.25     26.26
    8.0212     29.48     28.57    -19.98     26.26
    8.0313     28.82     28.59    -20.65     26.26
    8.0415     29.45     28.60    -20.04     26.26
    8.0516     29.87     28.62    -19.63     26.26
    8.0618     29.61     28.63    -19.90     26.26
    8.0720     29.45     28.64    -20.08     26.26
    8.0821     29.63     28.66    -19.91     26.26
    8.0923     29.19     28.67    -20.36     26.26
    8.1025     28.91     28.68    -20.66     26.26
    8.1126     29.43     28.70    -20.15     26.26
    8.1228     28.83     28.71    -20.77     26.26
    8.1330     30.39     28.73    -19.22     26.26
    8.1431     30.35     28.74    -19.28     26.26
    8.1533     30.18     28.76    -19.46     26.26
    8.1635     29.98     28.77    -19.67     26.26
    8.1736     30.66     28.78    -19.01     26.25
    8.1838     29.50     28.80    -20.18     26.25
    8.1940     30.12     28.81    -19.58     26.25
    8.2041     29.67     28.83    -20.04     26.25
    8.2143     28.83     28.84    -20.90     26.25
    8.2244     29.90     28.86    -19.84     26.25
    8.2346     29.29     28.87    -20.47     26.25
    8.2448     29.64     28.89    -20.13     26.25
    8.2549     30.41     28.90    -19.38     26.25
    8.2651     30.21     28.92    -19.59     26.25
    8.2753     30.15     28.93    -19.67     26.25
    8.2854     30.04     28.95    -19.79     26.25
    8.2956     30.10     28.96    -19.75     26.25
    8.3058     29.15     28.98    -20.71     26.25
    8.3159     30.39     29.00    -19.49     26.25
    8.3261     31.23     29.01    -18.67     26.25
    8.3363     30.60     29.03    -19.31     26.25
    8.3464     30.16     29.04    -19.77     26.24
    8.3566     30.94     29.06    -19.00     26.24
    8.3667     30.82     29.08    -19.14     26.24
    8.3769     30.54     29.09    -19.44     26.24
    8.3871     30.73     29.11    -19.26     26.24
    8.3972     29.95     29.12    -20.06     26.24
    8.4074     31.11     29.14    -18.91     26.24
    8.4176     30.95     29.16    -19.09     26.24
    8.4277     30.01     29.17    -20.05     26.24
    8.4379     30.10     29.19    -19.97     26.24
    8.4481     31.19     29.21    -18.90     26.24
    8.4582     29.66     29.22    -20.45     26.24
    8.4684     30.88     29.24    -19.24     26.24
    8.4786     31.30     29.26    -18.84     26.24
    8.4887     30.51     29.27    -19.65     26.24
    8.4989     31.41     29.29    -18.77     26.24
    8.5091     30.79     29.31    -19.40     26.23
    8.5192     30.40     29.33    -19.81     26.23
    8.5294     31.01     29.34    -19.22     26.23
    8.5395     31.09     29.36    -19.16     26.23
    8.5497     29.60     29.38    -20.66     26.23
    8.5599     31.32     29.40    -18.96     26.23
    8.5700     30.91     29.41    -19.39     26.23
    8.5802     30.46     29.43    -19.86     26.23
    8.5904     30.57     29.45    -19.76     26.23
    8.6005     31.45     29.47    -18.90     26.23
    8.6107     30.68     29.49    -19.69     26.23
    8.6209     31.29     29.50    -19.10     26.23
    8.6310     30.70     29.52    -19.71     26.23
    8.6412     30.61     29.54    -19.82     26.23
    8.6514     31.47     29.56    -18.97     26.23
    8.6615     31.46     29.58    -19.00     26.23
    8.6717     30.53     29.60    -19.95     26.23
    8.6818     31.74     29.62    -18.76     26.22
    8.6920     30.77     29.63    -19.75     26.22
    8.7022     30.79     29.65    -19.75     26.22
    8.7123     31.68     29.67    -18.88     26.22
    8.7225     32.27     29.69    -18.31     26.22
    8.7327     32.28     29.71    -18.32     26.22
    8.7428     31.55     29.73    -19.06     26.22
    8.7530     30.96     29.75    -19.67     26.22
    8.7632     31.14     29.77    -19.51     26.22
    8.7733     31.85     29.79    -18.82     26.22
    8.7835     31.88     29.81    -18.81     26.22
    8.7937     30.69     29.83    -20.02     26.22
    8.8038     32.29     29.85    -18.44     26.22
    8.8140     32.32     29.87    -18.43     26.22
    8.8242     31.88     29.89    -18.89     26.22
    8.8343     31.88     29.91    -18.91     26.22
    8.8445     32.10     29.93    -18.71     26.22
    8.8546     31.65     29.95    -19.18     26.21
    8.8648     31.63     29.97    -19.22     26.21
    8.8750     32.13     29.99    -18.74     26.21
    8.8851     32.31     30.01    -18.59     26.21
    8.8953     31.98     30.03    -18.94     26.21
    8.9055     32.36     30.05    -18.58     26.21
    8.9156     30.97     30.07    -19.99     26.21
    8.9258     31.32     30.10    -19.66     26.21
    8.9360     31.76     30.12    -19.24     26.21
    8.9461     31.74     30.14    -19.28     26.21
    8.9563     31.84     30.16    -19.20     26.21
    8.9665     31.72     30.18    -19.34     26.21
    8.9766     31.69     30.20    -19.40     26.21
    8.9868     32.22     30.22    -18.89     26.21
    8.9969     32.03     30.25    -19.10     26.21
    9.0071     31.32     30.27    -19.83     26.21
    9.0173     32.07     30.29    -19.10     26.21
    9.0274     31.86     30.31    -19.34     26.20
    9.0376     32.37     30.33    -18.85     26.20
    9.0478     32.85     30.36    -18.39     26.20
    9.0579     32.85     30.38    -18.41     26.20
    9.0681     32.27     30.40    -19.02     26.20
    9.0783     32.46     30.42    -18.85     26.20
    9.0884     31.68     30.45    -19.65     26.20
    9.0986     32.21     30.47    -19.14     26.20
    9.1088     31.98     30.49    -19.40     26.20
    9.1189     32.66     30.52    -18.74     26.20
    9.1291     32.77     30.54    -18.65     26.20
    9.1393     32.36     30.56    -19.09     26.20
    9.1494     32.83     30.59    -18.64     26.20
    9.1596     33.07     30.61    -18.42     26.20
    9.1697     32.39     30.63    -19.13     26.20
    9.1799     33.02     30.66    -18.52     26.20
    9.1901     32.60     30.68    -18.96     26.20
    9.2002     32.96     30.70    -18.63     26.19
    9.2104     32.38     30.73    -19.23     26.19
    9.2206     32.15     30.75    -19.49     26.19
    9.2307     32.97     30.78    -18.69     26.19
    9.2409     32.15     30.80    -19.54     26.19
    9.2511     32.52     30.83    -19.19     26.19
    9.2612     33.30     30.85    -18.43     26.19
    9.2714     32.98     30.88    -18.78     26.19
    9.2816     32.14     30.90    -19.64     26.19
    9.2917     33.85     30.93    -17.96     26.19
    9.3019     33.10     30.95    -18.73     26.19
    9.3120     32.62     30.98    -19.24     26.19
    9.3222     33.43     31.00    -18.45     26.19
    9.3324     32.98     31.03    -18.93     26.19
    9.3425     33.15     31.05    -18.79     26.19
    9.3527     32.77     31.08    -19.19     26.19
    9.3629     32.84     31.10    -19.15     26.19
    9.3730     32.99     31.13    -19.02     26.18
    9.3832     33.01     31.15    -19.03     26.18
    9.3934     33.53     31.18    -18.54     26.18
    9.4035     33.44     31.21    -18.65     26.18
    9.4137     32.82     31.23    -19.30     26.18
    9.4239     34.34     31.26    -17.80     26.18
    9.4340     33.64     31.29    -18.53     26.18
    9.4442     33.32     31.31    -18.88     26.18
    9.4544     33.19     31.34    -19.03     26.18
    9.4645     33.40     31.37    -18.85     26.18
    9.4747     33.95     31.39    -18.33     26.18
    9.4848     32.77     31.42    -19.54     26.18
    9.4950     33.29     31.45    -19.04     26.18
    9.5052     33.59     31.48    -18.77     26.18
    9.5153     33.91     31.50    -18.48     26.18
    9.5255     33.52     31.53    -18.90     26.18
    9.5357     33.69     31.56    -18.75     26.17
    9.5458     33.66     31.59    -18.81     26.17
    9.5560     33.34     31.61    -19.16     26.17
    9.5662     33.27     31.64    -19.26     26.17
    9.5763     33.74     31.67    -18.82     26.17
    9.5865     33.16     31.70    -19.42     26.17
    9.5967     34.74     31.73    -17.87     26.17
    9.6068     34.18     31.76    -18.46     26.17
    9.6170     33.21     31.79    -19.46     26.17
    9.6271     33.24     31.81    -19.46     26.17
    9.6373     34.26     31.84    -18.47     26.17
    9.6475     33.52     31.87    -19.24     26.17
    9.6576     33.35     31.90    -19.44     26.17
    9.6678     33.95     31.93    -18.87     26.17
    9.6780     33.68     31.96    -19.16     26.17
    9.6881     33.62     31.99    -19.25     26.17
    9.6983     34.60     32.02    -18.30     26.17
    9.7085     33.91     32.05    -19.02     26.16
    9.7186     33.85     32.08    -19.11     26.16
    9.7288     33.85     32.11    -19.14     26.16
    9.7390     34.15     32.14    -18.87     26.16
    9.7491     34.84     32.17    -18.21     26.16
    9.7593     33.73     32.20    -19.36     26.16
    9.7694     34.27     32.23    -18.85     26.16
    9.7796     33.33     32.26    -19.82     26.16
    9.7898     34.02     32.29    -19.16     26.16
    9.7999     34.29     32.32    -18.92     26.16
    9.8101     34.84     32.36    -18.40     26.16
    9.8203     33.94     32.39    -19.33     26.16
    9.8304     34.38     32.42    -18.92     26.16
    9.8406     34.18     32.45    -19.15     26.16
    9.8508     34.10     32.48    -19.27     26.16
    9.8609     33.93     32.51    -19.47     26.16
    9.8711     33.83     32.55    -19.60     26.16
    9.8813     35.05     32.58    -18.41     26.15
    9.8914     33.60     32.61    -19.89     26.15
    9.9016     34.74     32.64    -18.79     26.15
    9.9118     34.60     32.68    -18.96     26.15
    9.9219     34.79     32.71    -18.80     26.15
    9.9321     34.21     32.74    -19.41     26.15
    9.9422     34.73     32.77    -18.93     26.15
    9.9524     34.95     32.81    -18.74     26.15
    9.9626     35.02     32.84    -18.70     26.15
    9.9727     35.02     32.87    -18.74     26.15
    9.9829     35.16     32.91    -18.63     26.15
    9.9931     34.70     32.94    -19.12     26.15
   10.0032     34.84     32.97    -19.02     26.15
   10.0134     33.60     33.01    -20.29     26.15
   10.0236     35.29     33.04    -18.64     26.15
   10.0337     34.71     33.08    -19.25     26.15
   10.0439     34.46     33.11    -19.53     26.15
   10.0541     35.23     33.14    -18.80     26.14
   10.0642     34.78     33.18    -19.28     26.14
   10.0744     34.73     33.21    -19.37     26.14
   10.0845     34.60     33.25    -19.53     26.14
   10.0947     35.21     33.28    -18.96     26.14
   10.1049     35.73     33.32    -18.47     26.14
   10.1150     34.66     33.35    -19.58     26.14
   10.1252     35.02     33.39    -19.25     26.14
   10.1354     34.99     33.42    -19.32     26.14
   10.1455     35.32     33.46    -19.02     26.14
   10.1557     35.13     33.50    -19.25     26.14
   10.1659     34.69     33.53    -19.73     26.14
   10.1760     35.63     33.57    -18.82     26.14
   10.1862     35.30     33.60    -19.19     26.14
   10.1964     34.14     33.64    -20.38     26.14
   10.2065     35.49     33.68    -19.07     26.14
   10.2167     34.79     33.71    -19.81     26.14
   10.2269     35.54     33.75    -19.09     26.13
   10.2370     34.96     33.79    -19.71     26.13
   10.2472     35.57     33.82    -19.14     26.13
   10.2573     35.41     33.86    -19.34     26.13
   10.2675     35.15     33.90    -19.63     26.13
   10.2777     35.64     33.94    -19.18     26.13
   10.2878     35.27     33.97    -19.59     26.13
   10.2980     35.12     34.01    -19.78     26.13
   10.3082     35.49     34.05    -19.44     26.13
   10.3183     36.10     34.09    -18.87     26.13
   10.3285     35.83     34.13    -19.18     26.13
   10.3387     35.62     34.17    -19.43     26.13
   10.3488     35.88     34.20    -19.21     26.13
   10.3590     35.68     34.24    -19.45     26.13
   10.3692     35.33     34.28    -19.84     26.13
   10.3793     35.34     34.32    -19.86     26.13
   10.3895     36.02     34.36    -19.22     26.13
   10.3996     35.48     34.40    -19.80     26.12
   10.4098     36.26     34.44    -19.06     26.12
   10.4200     35.66     34.48    -19.70     26.12
   10.4301     35.88     34.52    -19.52     26.12
   10.4403     35.99     34.56    -19.45     26.12
   10.4505     35.41     34.60    -20.07     26.12
   10.4606     36.42     34.64    -19.10     26.12
   10.4708     35.52     34.68    -20.04     26.12
   10.4810     35.93     34.72    -19.67     26.12
   10.4911     35.98     34.76    -19.66     26.12
   10.5013     35.74     34.80    -19.94     26.12
   10.5115     36.01     34.84    -19.72     26.12
   10.5216     35.03     34.88    -20.74     26.12
   10.5318     36.47     34.92    -19.34     26.12
   10.5420     37.01     34.96    -18.84     26.12
   10.5521     36.80     35.01    -19.09     26.12
   10.5623     36.69     35.05    -19.24     26.12
   10.5724     36.82     35.09    -19.15     26.11
   10.5826     37.40     35.13    -18.62     26.11
   10.5928     35.52     35.17    -20.54     26.11
   10.6029     36.98     35.22    -19.12     26.11
   10.6131     36.52     35.26    -19.62     26.11
   10.6233     36.32     35.30    -19.87     26.11
   10.6334     36.05     35.34    -20.18     26.11
   10.6436     37.13     35.39    -19.14     26.11
   10.6538     35.69     35.43    -20.62     26.11
   10.6639     37.24     35.47    -19.12     26.11
   10.6741     36.95     35.52    -19.45     26.11
   10.6843     36.53     35.56    -19.91     26.11
   10.6944     37.63     35.60    -18.86     26.11
   10.7046     36.71     35.65    -19.82     26.11
   10.7147     36.83     35.69    -19.75     26.11
   10.7249     37.27     35.74    -19.35     26.11
   10.7351     37.00     35.78    -19.66     26.10
   10.7452     37.60     35.83    -19.11     26.10
   10.7554     36.84     35.87    -19.91     26.10
   10.7656     36.92     35.92    -19.88     26.10
   10.7757     36.95     35.96    -19.89     26.10
   10.7859     36.63     36.01    -20.26     26.10
   10.7961     37.65     36.05    -19.28     26.10
   10.8062     37.75     36.10    -19.23     26.10
   10.8164     36.59     36.14    -20.44     26.10
   10.8266     37.36     36.19    -19.71     26.10
   10.8367     37.02     36.23    -20.10     26.10
   10.8469     37.82     36.28    -19.34     26.10
   10.8571     36.95     36.33    -20.26     26.10
   10.8672     36.97     36.37    -20.29     26.10
   10.8774     37.62     36.42    -19.68     26.10
   10.8875     37.34     36.47    -20.01     26.10
   10.8977     37.63     36.51    -19.77     26.10
   10.9079     37.54     36.56    -19.90     26.09
   10.9180     37.44     36.61    -20.05     26.09
   10.9282     37.77     36.65    -19.77     26.09
   10.9384     37.55     36.70    -20.04     26.09
   10.9485     37.07     36.75    -20.56     26.09
   10.9587     38.36     36.80    -19.32     26.09
   10.9689     37.70     36.85    -20.03     26.09
   10.9790     37.23     36.89    -20.55     26.09
   10.9892     37.96     36.94    -19.87     26.09
   10.9994     37.49     36.99    -20.38     26.09
   11.0095     37.24     37.04    -20.68     26.09
   11.0197     38.30     37.09    -19.67     26.09
   11.0298     37.61     37.14    -20.41     26.09
   11.0400     38.07     37.19    -20.00     26.09
   11.0502     38.48     37.24    -19.64     26.09
   11.0603     36.79     37.29    -21.38     26.09
   11.0705     37.69     37.34    -20.53     26.09
   11.0807     36.93     37.39    -21.34     26.08
   11.0908     37.43     37.44    -20.89     26.08
   11.1010     38.54     37.49    -19.83     26.08
   11.1112     38.16     37.54    -20.26     26.08
   11.1213     38.68     37.59    -19.79     26.08
   11.1315     38.22     37.64    -20.30     26.08
   11.1417     38.24     37.69    -20.33     26.08
   11.1518     38.03     37.74    -20.59     26.08
   11.1620     37.89     37.79    -20.78     26.08
   11.1722     37.62     37.84    -21.11     26.08
   11.1823     38.76     37.89    -20.02     26.08
   11.1925     38.65     37.95    -20.18     26.08
   11.2026     38.88     38.00    -20.00     26.08
   11.2128     38.13     38.05    -20.80     26.08
   11.2230     38.50     38.10    -20.49     26.08
   11.2331     37.62     38.15    -21.42     26.08
   11.2433     39.10     38.21    -19.99     26.08
   11.2535     38.35     38.26    -20.79     26.07
   11.2636     37.54     38.31    -21.66     26.07
   11.2738     39.29     38.36    -19.96     26.07
   11.2840     39.24     38.42    -20.06     26.07
   11.2941     38.02     38.47    -21.34     26.07
   11.3043     38.94     38.53    -20.47     26.07
   11.3145     38.43     38.58    -21.03     26.07
   11.3246     38.29     38.63    -21.23     26.07
   11.3348     39.76     38.69    -19.81     26.07
   11.3449     38.21     38.74    -21.41     26.07
   11.3551     39.71     38.80    -19.97     26.07
   11.3653     39.17     38.85    -20.56     26.07
   11.3754     38.86     38.90    -20.93     26.07
   11.3856     39.07     38.96    -20.77     26.07
   11.3958     39.48     39.02    -20.42     26.07
   11.4059     39.56     39.07    -20.39     26.07
   11.4161     39.17     39.13    -20.84     26.07
   11.4263     39.55     39.18    -20.52     26.06
   11.4364     39.20     39.24    -20.92     26.06
   11.4466     38.93     39.29    -21.25     26.06
   11.4568     38.28     39.35    -21.95     26.06
   11.4669     39.10     39.41    -21.19     26.06
   11.4771     39.00     39.46    -21.35     26.06
   11.4873     39.94     39.52    -20.46     26.06
   11.4974     38.86     39.58    -21.60     26.06
   11.5076     39.96     39.63    -20.56     26.06
   11.5177     39.86     39.69    -20.71     26.06
   11.5279     39.14     39.75    -21.49     26.06
   11.5381     38.94     39.81    -21.75     26.06
   11.5482     39.46     39.86    -21.29     26.06
   11.5584     39.73     39.92    -21.07     26.06
   11.5686     39.46     39.98    -21.40     26.06
   11.5787     39.16     40.04    -21.76     26.06
   11.5889     39.96     40.10    -21.02     26.06
   11.5991     39.98     40.15    -21.06     26.05
   11.6092     40.44     40.21    -20.66     26.05
   11.6194     39.65     40.27    -21.51     26.05
   11.6296     39.01     40.33    -22.21     26.05
   11.6397     40.10     40.39    -21.17     26.05
   11.6499     40.09     40.45    -21.24     26.05
   11.6600     41.20     40.51    -20.19     26.05
   11.6702     40.36     40.57    -21.09     26.05
   11.6804     40.35     40.63    -21.16     26.05
   11.6905     40.06     40.69    -21.51     26.05
   11.7007     41.45     40.75    -20.18     26.05
   11.7109     39.90     40.81    -21.79     26.05
   11.7210     40.35     40.87    -21.40     26.05
   11.7312     40.80     40.93    -21.02     26.05
   11.7414     40.48     40.99    -21.40     26.05
   11.7515     40.55     41.05    -21.39     26.05
   11.7617     39.96     41.12    -22.04     26.05
   11.7719     41.34     41.18    -20.72     26.04
   11.7820     40.77     41.24    -21.35     26.04
   11.7922     41.33     41.30    -20.85     26.04
   11.8023     40.76     41.36    -21.49     26.04
   11.8125     40.59     41.42    -21.72     26.04
   11.8227     41.14     41.49    -21.23     26.04
   11.8328     40.49     41.55    -21.94     26.04
   11.8430     40.27     41.61    -22.23     26.04
   11.8532     41.01     41.68    -21.55     26.04
   11.8633     41.43     41.74    -21.19     26.04
   11.8735     40.43     41.80    -22.26     26.04
   11.8837     41.01     41.87    -21.74     26.04
   11.8938     40.87     41.93    -21.94     26.04
   11.9040     40.63     41.99    -22.25     26.04
   11.9142     41.14     42.06    -21.80     26.04
   11.9243     41.91     42.12    -21.10     26.04
   11.9345     41.87     42.19    -21.20     26.03
   11.9447     41.30     42.25    -21.83     26.03
   11.9548     40.70     42.31    -22.50     26.03
   11.9650     41.81     42.38    -21.45     26.03
   11.9751     41.23     42.44    -22.10     26.03
   11.9853     41.80     42.51    -21.59     26.03
   11.9955     41.37     42.58    -22.09     26.03
   12.0056     41.62     42.64    -21.91     26.03
   12.0158     42.01     42.71    -21.58     26.03
   12.0260     41.91     42.77    -21.75     26.03
   12.0361     42.24     42.84    -21.48     26.03
   12.0463     42.56     42.91    -21.23     26.03
   12.0565     42.18     42.97    -21.68     26.03
   12.0666     42.21     43.04    -21.71     26.03
   12.0768     41.28     43.11    -22.71     26.03
   12.0870     42.32     43.17    -21.74     26.03
   12.0971     41.98     43.24    -22.14     26.03
   12.1073     42.34     43.31    -21.85     26.02
   12.1174     41.95     43.37    -22.31     26.02
   12.1276     42.85     43.44    -21.48     26.02
   12.1378     41.77     43.51    -22.62     26.02
   12.1479     42.54     43.58    -21.92     26.02
   12.1581     42.76     43.65    -21.77     26.02
   12.1683     42.88     43.72    -21.72     26.02
   12.1784     43.34     43.78    -21.33     26.02
   12.1886     43.32     43.85    -21.42     26.02
   12.1988     42.40     43.92    -22.41     26.02
   12.2089     42.80     43.99    -22.07     26.02
   12.2191     42.82     44.06    -22.12     26.02
   12.2293     44.02     44.13    -20.99     26.02
   12.2394     42.90     44.20    -22.18     26.02
   12.2496     41.74     44.27    -23.41     26.02
   12.2598     43.25     44.34    -21.97     26.02
   12.2699     42.63     44.41    -22.66     26.02
   12.2801     43.05     44.48    -22.31     26.01
   12.2902     42.13     44.55    -23.30     26.01
   12.3004     43.49     44.62    -22.02     26.01
   12.3106     43.19     44.69    -22.39     26.01
   12.3207     43.07     44.76    -22.58     26.01
   12.3309     43.49     44.83    -22.23     26.01
   12.3411     43.87     44.91    -21.92     26.01
   12.3512     42.65     44.98    -23.21     26.01
   12.3614     43.52     45.05    -22.41     26.01
   12.3716     44.11     45.12    -21.90     26.01
   12.3817     43.67     45.19    -22.41     26.01
   12.3919     44.78     45.27    -21.37     26.01
   12.4021     44.26     45.34    -21.96     26.01
   12.4122     43.71     45.41    -22.58     26.01
   12.4224     43.43     45.48    -22.94     26.01
   12.4325     44.46     45.56    -21.98     26.01
   12.4427     43.82     45.63    -22.69     26.01
   12.4529     43.45     45.70    -23.14     26.00
   12.4630     44.08     45.78    -22.58     26.00
   12.4732     44.58     45.85    -22.15     26.00
   12.4834     44.42     45.92    -22.39     26.00
   12.4935     43.93     46.00    -22.95     26.00
   12.5037     44.74     46.07    -22.22     26.00
   12.5139     44.26     46.15    -22.77     26.00
   12.5240     43.60     46.22    -23.51     26.00
   12.5342     44.71     46.30    -22.47     26.00
   12.5444     44.63     46.37    -22.63     26.00
   12.5545     44.92     46.45    -22.41     26.00
   12.5647     45.02     46.52    -22.39     26.00
   12.5749     45.77     46.60    -21.71     26.00
   12.5850     45.36     46.67    -22.20     26.00
   12.5952     45.51     46.75    -22.12     26.00
   12.6053     45.06     46.82    -22.65     26.00
   12.6155     45.81     46.90    -21.97     26.00
   12.6257     45.82     46.98    -22.04     25.99
   12.6358     45.61     47.05    -22.33     25.99
   12.6460     46.49     47.13    -21.52     25.99
   12.6562     45.09     47.21    -23.00     25.99
   12.6663     45.05     47.28    -23.12     25.99
   12.6765     46.21     47.36    -22.03     25.99
   12.6867     45.90     47.44    -22.42     25.99
   12.6968     45.94     47.52    -22.46     25.99
   12.7070     46.02     47.59    -22.46     25.99
   12.7172     46.26     47.67    -22.30     25.99
   12.7273     45.59     47.75    -23.04     25.99
   12.7375     45.96     47.83    -22.75     25.99
   12.7476     45.48     47.90    -23.31     25.99
   12.7578     47.46     47.98    -21.41     25.99
   12.7680     46.13     48.06    -22.82     25.99
   12.7781     45.05     48.14    -23.97     25.99
   12.7883     46.84     48.22    -22.26     25.99
   12.7985     47.02     48.30    -22.16     25.98
   12.8086     46.43     48.38    -22.83     25.98
   12.8188     47.02     48.46    -22.32     25.98
   12.8290     46.26     48.54    -23.16     25.98
   12.8391     47.02     48.62    -22.48     25.98
   12.8493     46.88     48.70    -22.70     25.98
   12.8595     47.17     48.78    -22.49     25.98
   12.8696     46.51     48.86    -23.23     25.98
   12.8798     46.87     48.94    -22.95     25.98
   12.8900     46.24     49.02    -23.66     25.98
   12.9001     45.70     49.10    -24.28     25.98
   12.9103     47.68     49.18    -22.39     25.98
   12.9204     47.26     49.26    -22.89     25.98
   12.9306     47.47     49.34    -22.76     25.98
   12.9408     47.51     49.43    -22.80     25.98
   12.9509     46.32     49.51    -24.07     25.98
   12.9611     46.10     49.59    -24.37     25.97
   12.9713     47.14     49.67    -23.41     25.97
   12.9814     47.82     49.75    -22.82     25.97
   12.9916     48.10     49.84    -22.62     25.97
   13.0018     47.36     49.92    -23.44     25.97
   13.0119     48.66     50.00    -22.22     25.97
   13.0221     48.27     50.08    -22.70     25.97
   13.0323     49.59     50.17    -21.46     25.97
   13.0424     46.98     50.25    -24.15     25.97
   13.0526     47.74     50.33    -23.48     25.97
   13.0627     48.14     50.42    -23.16     25.97
   13.0729     48.40     50.50    -22.98     25.97
   13.0831     47.48     50.58    -23.99     25.97
   13.0932     48.76     50.67    -22.79     25.97
   13.1034     47.33     50.75    -24.31     25.97
   13.1136     48.82     50.84    -22.90     25.97
   13.1237     48.39     50.92    -23.41     25.97
   13.1339     48.27     51.00    -23.62     25.96
   13.1441     48.86     51.09    -23.11     25.96
   13.1542     48.82     51.17    -23.24     25.96
   13.1644     50.12     51.26    -22.02     25.96
   13.1746     49.34     51.34    -22.89     25.96
   13.1847     48.86     51.43    -23.45     25.96
   13.1949     49.60     51.52    -22.80     25.96
   13.2051     48.75     51.60    -23.74     25.96
   13.2152     48.13     51.69    -24.44     25.96
   13.2254     50.04     51.77    -22.62     25.96
   13.2355     49.20     51.86    -23.54     25.96
   13.2457     50.10     51.94    -22.73     25.96
   13.2559     49.77     52.03    -23.15     25.96
   13.2660     50.29     52.12    -22.71     25.96
   13.2762     48.95     52.20    -24.14     25.96
   13.2864     50.51     52.29    -22.67     25.96
   13.2965     50.64     52.38    -22.62     25.96
   13.3067     49.85     52.47    -23.50     25.95
   13.3169     50.03     52.55    -23.41     25.95
   13.3270     50.33     52.64    -23.19     25.95
   13.3372     49.74     52.73    -23.87     25.95
   13.3474     51.21     52.82    -22.49     25.95
   13.3575     50.68     52.90    -23.11     25.95
   13.3677     49.92     52.99    -23.96     25.95
   13.3778     51.41     53.08    -22.55     25.95
   13.3880     50.65     53.17    -23.40     25.95
   13.3982     51.00     53.26    -23.14     25.95
   13.4083     51.45     53.35    -22.78     25.95
   13.4185     51.42     53.44    -22.90     25.95
   13.4287     51.83     53.52    -22.58     25.95
   13.4388     50.07     53.61    -24.43     25.95
   13.4490     51.24     53.70    -23.35     25.95
   13.4592     50.98     53.79    -23.70     25.95
   13.4693     51.24     53.88    -23.53     25.95
   13.4795     51.28     53.97    -23.58     25.94
   13.4897     53.01     54.06    -21.94     25.94
   13.4998     52.22     54.15    -22.82     25.94
   13.5100     51.22     54.24    -23.91     25.94
   13.5201     52.54     54.33    -22.68     25.94
   13.5303     52.64     54.42    -22.67     25.94
   13.5405     52.24     54.51    -23.16     25.94
   13.5506     52.70     54.60    -22.79     25.94
   13.5608     53.05     54.70    -22.53     25.94
   13.5710     52.19     54.79    -23.48     25.94
   13.5811     53.15     54.88    -22.61     25.94
   13.5913     53.20     54.97    -22.65     25.94
   13.6015     54.40     55.06    -21.54     25.94
   13.6116     52.90     55.15    -23.14     25.94
   13.6218     54.27     55.24    -21.86     25.94
   13.6320     52.99     55.34    -23.23     25.94
   13.6421     53.91     55.43    -22.40     25.94
   13.6523     53.27     55.52    -23.13     25.93
   13.6625     52.63     55.61    -23.87     25.93
   13.6726     52.92     55.71    -23.67     25.93
   13.6828     53.07     55.80    -23.61     25.93
   13.6929     53.09     55.89    -23.68     25.93
   13.7031     53.84     55.98    -23.03     25.93
   13.7133     53.10     56.08    -23.86     25.93
   13.7234     53.72     56.17    -23.33     25.93
   13.7336     54.95     56.26    -22.20     25.93
   13.7438     54.40     56.36    -22.84     25.93
   13.7539     54.94     56.45    -22.39     25.93
   13.7641     55.17     56.55    -22.26     25.93
   13.7743     53.86     56.64    -23.66     25.93
   13.7844     55.52     56.73    -22.10     25.93
   13.7946     54.99     56.83    -22.72     25.93
   13.8048     54.87     56.92    -22.94     25.93
   13.8149     54.79     57.02    -23.11     25.93
   13.8251     55.23     57.11    -22.77     25.92
   13.8352     55.13     57.21    -22.96     25.92
   13.8454     55.01     57.30    -23.18     25.92
   13.8556     55.61     57.40    -22.67     25.92
   13.8657     54.98     57.49    -23.40     25.92
   13.8759     54.64     57.59    -23.83     25.92
   13.8861     55.59     57.68    -22.98     25.92
   13.8962     55.33     57.78    -23.33     25.92
   13.9064     56.19     57.87    -22.57     25.92
   13.9166     56.46     57.97    -22.39     25.92
   13.9267     54.91     58.07    -24.04     25.92
   13.9369     57.20     58.16    -21.85     25.92
   13.9471     57.51     58.26    -21.63     25.92
   13.9572     56.07     58.36    -23.17     25.92
   13.9674     56.04     58.45    -23.30     25.92
   13.9776     56.49     58.55    -22.94     25.92
   13.9877     56.80     58.65    -22.73     25.92
   13.9979     57.59     58.74    -22.04     25.91
   14.0080     56.15     58.84    -23.58     25.91
   14.0182     56.65     58.94    -23.17     25.91
   14.0284     57.47     59.04    -22.45     25.91
   14.0385     57.24     59.13    -22.78     25.91
   14.0487     55.91     59.23    -24.21     25.91
   14.0589     56.95     59.33    -23.27     25.91
   14.0690     58.08     59.43    -22.23     25.91
   14.0792     58.27     59.53    -22.14     25.91
   14.0894     58.30     59.63    -22.21     25.91
   14.0995     58.68     59.72    -21.93     25.91
   14.1097     57.19     59.82    -23.52     25.91
   14.1199     58.31     59.92    -22.50     25.91
   14.1300     57.62     60.02    -23.29     25.91
   14.1402     58.82     60.12    -22.19     25.91
   14.1503     58.43     60.22    -22.67     25.91
   14.1605     57.70     60.32    -23.50     25.90
   14.1707     59.07     60.42    -22.23     25.90
   14.1808     58.26     60.52    -23.14     25.90
   14.1910     58.49     60.62    -23.01     25.90
   14.2012     60.04     60.72    -21.57     25.90
   14.2113     59.13     60.82    -22.58     25.90
   14.2215     59.61     60.92    -22.20     25.90
   14.2317     59.21     61.02    -22.70     25.90
   14.2418     60.71     61.12    -21.30     25.90
   14.2520     59.98     61.23    -22.13     25.90
   14.2622     60.39     61.33    -21.82     25.90
   14.2723     60.00     61.43    -22.31     25.90
   14.2825     60.40     61.53    -22.01     25.90
   14.2927     59.95     61.63    -22.57     25.90
   14.3028     59.98     61.73    -22.64     25.90
   14.3130     60.23     61.84    -22.49     25.90
   14.3231     59.22     61.94    -23.60     25.90
   14.3333     60.54     62.04    -22.39     25.89
   14.3435     60.85     62.14    -22.18     25.89
   14.3536     60.46     62.25    -22.67     25.89
   14.3638     61.45     62.35    -21.78     25.89
   14.3740     61.49     62.45    -21.85     25.89
   14.3841     60.59     62.56    -22.85     25.89
   14.3943     60.65     62.66    -22.90     25.89
   14.4045     61.65     62.77    -22.00     25.89
   14.4146     61.56     62.87    -22.19     25.89
   14.4248     61.22     62.97    -22.64     25.89
   14.4350     62.16     63.08    -21.80     25.89
   14.4451     61.66     63.18    -22.41     25.89
   14.4553     62.01     63.29    -22.16     25.89
   14.4654     62.83     63.39    -21.45     25.89
   14.4756     62.49     63.50    -21.89     25.89
   14.4858     61.93     63.61    -22.56     25.89
   14.4959     62.54     63.71    -22.06     25.89
   14.5061     62.34     63.82    -22.36     25.88
   14.5163     63.14     63.92    -21.67     25.88
   14.5264     64.21     64.03    -20.70     25.88
   14.5366     62.33     64.14    -22.69     25.88
   14.5468     62.60     64.25    -22.53     25.88
   14.5569     64.15     64.35    -21.09     25.88
   14.5671     64.11     64.46    -21.23     25.88
   14.5773     63.72     64.57    -21.73     25.88
   14.5874     63.20     64.68    -22.36     25.88
   14.5976     63.80     64.78    -21.87     25.88
   14.6078     63.70     64.89    -22.08     25.88
   14.6179     63.86     65.00    -22.03     25.88
   14.6281     64.79     65.11    -21.21     25.88
   14.6382     65.88     65.22    -20.22     25.88
   14.6484     64.27     65.33    -21.95     25.88
   14.6586     64.90     65.44    -21.43     25.88
   14.6687     64.12     65.55    -22.32     25.88
   14.6789     66.18     65.66    -20.37     25.87
   14.6891     65.01     65.77    -21.65     25.87
   14.6992     65.13     65.88    -21.64     25.87
   14.7094     65.09     66.00    -21.79     25.87
   14.7196     65.55     66.11    -21.44     25.87
   14.7297     66.05     66.22    -21.05     25.87
   14.7399     65.78     66.33    -21.44     25.87
   14.7501     67.16     66.45    -20.17     25.87
   14.7602     66.78     66.56    -20.66     25.87
   14.7704     65.99     66.67    -21.57     25.87
   14.7805     65.87     66.79    -21.80     25.87
   14.7907     66.43     66.90    -21.35     25.87
   14.8009     66.52     67.02    -21.38     25.87
   14.8110     67.57     67.13    -20.44     25.87
   14.8212     67.40     67.25    -20.73     25.87
   14.8314     67.02     67.36    -21.23     25.87
   14.8415     67.01     67.48    -21.35     25.87
   14.8517     66.74     67.59    -21.74     25.86
   14.8619     66.99     67.71    -21.61     25.86
   14.8720     68.28     67.83    -20.43     25.86
   14.8822     67.34     67.95    -21.49     25.86
   14.8924     69.23     68.07    -19.72     25.86
   14.9025     67.87     68.18    -21.20     25.86
   14.9127     67.29     68.30    -21.90     25.86
   14.9229     68.64     68.42    -20.67     25.86
   14.9330     68.79     68.54    -20.64     25.86
   14.9432     67.10     68.66    -22.45     25.86
   14.9533     68.66     68.78    -21.01     25.86
   14.9635     68.77     68.90    -21.02     25.86
   14.9737     69.52     69.03    -20.39     25.86
   14.9838     69.57     69.15    -20.46     25.86
   14.9940     69.98     69.27    -20.18     25.86
   15.0042     69.73     69.40    -20.55     25.86
   15.0143     69.95     69.52    -20.45     25.86
   15.0245     71.34     69.64    -19.19     25.85
   15.0347     71.53     69.77    -19.12     25.85
   15.0448     71.22     69.89    -19.56     25.85
   15.0550     70.41     70.02    -20.49     25.85
   15.0652     71.68     70.15    -19.35     25.85
   15.0753     71.36     70.27    -19.80     25.85
   15.0855     71.25     70.40    -20.03     25.85
   15.0956     71.58     70.53    -19.83     25.85
   15.1058     70.92     70.66    -20.62     25.85
   15.1160     70.87     70.79    -20.80     25.85
   15.1261     70.71     70.92    -21.09     25.85
   15.1363     72.03     71.05    -19.90     25.85
   15.1465     72.35     71.18    -19.71     25.85
   15.1566     72.07     71.31    -20.12     25.85
   15.1668     72.95     71.44    -19.38     25.85
   15.1770     71.01     71.58    -21.45     25.85
   15.1871     72.04     71.71    -20.55     25.85
   15.1973     70.68     71.84    -22.05     25.84
   15.2075     72.80     71.98    -20.06     25.84
   15.2176     73.01     72.11    -19.99     25.84
   15.2278     73.03     72.25    -20.11     25.84
   15.2380     73.43     72.39    -19.84     25.84
   15.2481     72.96     72.53    -20.45     25.84
   15.2583     74.17     72.67    -19.38     25.84
   15.2684     72.77     72.80    -20.92     25.84
   15.2786     72.46     72.94    -21.37     25.84
   15.2888     74.56     73.09    -19.41     25.84
   15.2989     72.93     73.23    -21.18     25.84
   15.3091     75.13     73.37    -19.12     25.84
   15.3193     72.88     73.51    -21.52     25.84
   15.3294     74.96     73.66    -19.58     25.84
   15.3396     76.18     73.80    -18.51     25.84
   15.3498     74.61     73.95    -20.22     25.84
   15.3599     75.88     74.09    -19.10     25.83
   15.3701     76.13     74.24    -19.00     25.83
   15.3803     75.38     74.39    -19.89     25.83
   15.3904     76.56     74.54    -18.86     25.83
   15.4006     75.15     74.69    -20.42     25.83
   15.4107     76.38     74.84    -19.34     25.83
   15.4209     75.68     74.99    -20.19     25.83
   15.4311     77.35     75.14    -18.68     25.83
   15.4412     76.70     75.30    -19.48     25.83
   15.4514     76.80     75.45    -19.54     25.83
   15.4616     76.46     75.61    -20.03     25.83
   15.4717     78.10     75.76    -18.55     25.83
   15.4819     76.56     75.92    -20.24     25.83
   15.4921     76.73     76.08    -20.23     25.83
   15.5022     76.50     76.24    -20.62     25.83
   15.5124     77.98     76.40    -19.30     25.83
   15.5226     77.91     76.56    -19.53     25.83
   15.5327     79.25     76.72    -18.35     25.82
   15.5429     79.55     76.88    -18.22     25.82
   15.5530     78.16     77.05    -19.77     25.82
   15.5632     78.18     77.21    -19.92     25.82
   15.5734     79.51     77.38    -18.75     25.82
   15.5835     78.40     77.55    -20.03     25.82
   15.5937     79.85     77.72    -18.75     25.82
   15.6039     79.11     77.88    -19.66     25.82
   15.6140     79.02     78.05    -19.92     25.82
   15.6242     80.07     78.23    -19.04     25.82
   15.6344     78.68     78.40    -20.60     25.82
   15.6445     80.51     78.57    -18.95     25.82
   15.6547     79.74     78.75    -19.89     25.82
   15.6649     80.79     78.92    -19.02     25.82
   15.6750     80.14     79.10    -19.84     25.82
   15.6852     81.00     79.28    -19.16     25.82
   15.6954     81.07     79.46    -19.27     25.82
   15.7055     82.12     79.64    -18.40     25.81
   15.7157     81.32     79.82    -19.38     25.81
   15.7258     80.97     80.00    -19.92     25.81
   15.7360     81.60     80.19    -19.47     25.81
   15.7462     81.50     80.37    -19.76     25.81
   15.7563     82.72     80.56    -18.72     25.81
   15.7665     83.16     80.75    -18.47     25.81
   15.7767     82.93     80.94    -18.89     25.81
   15.7868     82.47     81.12    -19.54     25.81
   15.7970     82.77     81.32    -19.43     25.81
   15.8072     83.32     81.51    -19.07     25.81
   15.8173     82.39     81.70    -20.20     25.81
   15.8275     83.51     81.90    -19.27     25.81
   15.8377     84.58     82.09    -18.40     25.81
   15.8478     84.35     82.29    -18.82     25.81
   15.8580     83.59     82.49    -19.78     25.81
   15.8681     84.82     82.69    -18.75     25.81
   15.8783     84.17     82.89    -19.60     25.80
   15.8885     84.26     83.09    -19.72     25.80
   15.8986     84.15     83.29    -20.03     25.80
   15.9088     83.68     83.50    -20.70     25.80
   15.9190     85.64     83.71    -18.95     25.80
   15.9291     84.93     83.91    -19.87     25.80
   15.9393     86.91     84.12    -18.09     25.80
   15.9495     83.99     84.33    -21.22     25.80
   15.9596     86.55     84.54    -18.87     25.80
   15.9698     85.15     84.75    -20.49     25.80
   15.9800     86.99     84.97    -18.86     25.80
   15.9901     86.60     85.18    -19.46     25.80
   16.0003     88.31     85.40    -17.97     25.80
   16.0105     87.00     85.61    -19.50     25.80
   16.0206     87.99     85.83    -18.72     25.80
   16.0308     85.57     86.05    -21.37     25.80
   16.0409     88.84     86.27    -18.31     25.80
   16.0511     87.45     86.49    -19.93     25.79
   16.0613     88.80     86.72    -18.80     25.79
   16.0714     89.36     86.94    -18.46     25.79
   16.0816     89.24     87.17    -18.81     25.79
   16.0918     88.97     87.39    -19.31     25.79
   16.1019     88.76     87.62    -19.74     25.79
   16.1121     89.81     87.85    -18.92     25.79
   16.1223     90.25     88.08    -18.72     25.79
   16.1324     89.35     88.31    -19.85     25.79
   16.1426     90.19     88.55    -19.24     25.79
   16.1528     88.75     88.78    -20.91     25.79
   16.1629     89.34     89.01    -20.56     25.79
   16.1731     90.32     89.25    -19.81     25.79
   16.1832     91.46     89.49    -18.91     25.79
   16.1934     90.45     89.73    -20.16     25.79
   16.2036     91.37     89.97    -19.48     25.79
   16.2137     91.24     90.20    -19.85     25.79
   16.2239     92.67     90.45    -18.66     25.78
   16.2341     92.32     90.69    -19.25     25.78
   16.2442     91.70     90.93    -20.12     25.78
   16.2544     91.49     91.18    -20.57     25.78
   16.2646     91.40     91.43    -20.91     25.78
   16.2747     92.07     91.67    -20.48     25.78
   16.2849     91.61     91.92    -21.19     25.78
   16.2951     92.40     92.17    -20.65     25.78
   16.3052     92.15     92.42    -21.15     25.78
   16.3154     92.53     92.67    -21.02     25.78
   16.3256     93.56     92.92    -20.24     25.78
   16.3357     93.56     93.17    -20.50     25.78
   16.3459     94.94     93.43    -19.37     25.78
   16.3560     94.55     93.68    -20.01     25.78
   16.3662     94.63     93.93    -20.19     25.78
   16.3764     95.65     94.19    -19.43     25.78
   16.3865     94.04     94.45    -21.29     25.77
   16.3967     93.99     94.71    -21.60     25.77
   16.4069     95.21     94.96    -20.64     25.77
   16.4170     96.53     95.22    -19.58     25.77
   16.4272     96.48     95.48    -19.89     25.77
   16.4374     95.64     95.74    -20.99     25.77
   16.4475     97.08     96.00    -19.81     25.77
   16.4577     94.01     96.27    -23.14     25.77
   16.4679     95.73     96.53    -21.68     25.77
   16.4780     94.82     96.79    -22.85     25.77
   16.4882     97.40     97.05    -20.54     25.77
   16.4983     97.39     97.32    -20.81     25.77
   16.5085     97.52     97.58    -20.95     25.77
   16.5187     97.47     97.85    -21.26     25.77
   16.5288     99.45     98.11    -19.55     25.77
   16.5390     98.09     98.38    -21.17     25.77
   16.5492     96.70     98.65    -22.83     25.77
   16.5593     98.91     98.91    -20.88     25.76
   16.5695     98.53     99.18    -21.53     25.76
   16.5797     98.48     99.45    -21.85     25.76
   16.5898     99.47     99.71    -21.13     25.76
   16.6000    100.34     99.98    -20.52     25.76
   16.6102     99.34    100.25    -21.79     25.76
   16.6203    100.66    100.52    -20.74     25.76
   16.6305    101.73    100.78    -19.94     25.76
   16.6407    100.93    101.05    -21.01     25.76
   16.6508    100.55    101.32    -21.65     25.76
   16.6610    102.17    101.59    -20.30     25.76
   16.6711    100.74    101.86    -22.00     25.76
   16.6813    101.72    102.12    -21.29     25.76
   16.6915    102.80    102.39    -20.48     25.76
   16.7016    102.63    102.66    -20.91     25.76
   16.7118    101.48    102.93    -22.33     25.76
   16.7220    103.04    103.20    -21.04     25.76
   16.7321    103.95    103.46    -20.40     25.75
   16.7423    102.82    103.73    -21.79     25.75
   16.7525    104.65    104.00    -20.23     25.75
   16.7626    103.90    104.26    -21.25     25.75
   16.7728    102.29    104.53    -23.12     25.75
   16.7830    105.83    104.80    -19.85     25.75
   16.7931    104.73    105.06    -21.21     25.75
   16.8033    104.85    105.32    -21.36     25.75
   16.8134    106.16    105.59    -20.31     25.75
   16.8236    105.23    105.85    -21.50     25.75
   16.8338    106.41    106.11    -20.59     25.75
   16.8439    105.48    106.37    -21.78     25.75
   16.8541    105.78    106.64    -21.74     25.75
   16.8643    104.35    106.90    -23.43     25.75
   16.8744    108.33    107.15    -19.71     25.75
   16.8846    105.52    107.41    -22.78     25.75
   16.8948    106.29    107.67    -22.27     25.75
   16.9049    106.55    107.93    -22.26     25.74
   16.9151    106.54    108.19    -22.53     25.74
   16.9253    107.46    108.44    -21.87     25.74
   16.9354    106.99    108.69    -22.59     25.74
   16.9456    109.09    108.95    -20.74     25.74
   16.9558    109.25    109.20    -20.83     25.74
   16.9659    109.25    109.45    -21.08     25.74
   16.9761    106.81    109.70    -23.77     25.74
   16.9862    108.18    109.94    -22.65     25.74
   16.9964    108.88    110.19    -22.20     25.74
   17.0066    108.34    110.44    -22.98     25.74
   17.0167    109.53    110.68    -22.03     25.74
   17.0269    109.20    110.92    -22.61     25.74
   17.0371    108.07    111.17    -23.98     25.74
   17.0472    110.59    111.40    -21.70     25.74
   17.0574    109.82    111.64    -22.71     25.74
   17.0676    110.01    111.88    -22.76     25.74
   17.0777    110.02    112.11    -22.98     25.73
   17.0879    111.18    112.35    -22.05     25.73
   17.0981    110.50    112.58    -22.97     25.73
   17.1082    110.60    112.81    -23.09     25.73
   17.1184    111.27    113.04    -22.65     25.73
   17.1285    111.02    113.26    -23.13     25.73
   17.1387    108.57    113.49    -25.80     25.73
   17.1489    112.22    113.71    -22.38     25.73
   17.1590    111.25    113.93    -23.57     25.73
   17.1692    110.12    114.16    -24.92     25.73
   17.1794    111.84    114.37    -23.42     25.73
   17.1895    112.85    114.59    -22.62     25.73
   17.1997    112.56    114.80    -23.13     25.73
   17.2099    113.10    115.02    -22.80     25.73
   17.2200    111.02    115.23    -25.09     25.73
   17.2302    113.54    115.44    -22.78     25.73
   17.2404    114.73    115.64    -21.80     25.73
   17.2505    113.98    115.85    -22.75     25.72
   17.2607    113.71    116.05    -23.23     25.72
   17.2709    114.01    116.26    -23.13     25.72
   17.2810    112.54    116.45    -24.80     25.72
   17.2912    114.71    116.65    -22.83     25.72
   17.3013    115.32    116.85    -22.41     25.72
   17.3115    116.20    117.05    -21.73     25.72
   17.3217    115.82    117.24    -22.30     25.72
   17.3318    117.77    117.43    -20.54     25.72
   17.3420    116.94    117.62    -21.57     25.72
   17.3522    115.77    117.81    -22.93     25.72
   17.3623    117.00    118.00    -21.88     25.72
   17.3725    116.45    118.19    -22.62     25.72
   17.3827    116.11    118.37    -23.15     25.72
   17.3928    116.96    118.56    -22.48     25.72
   17.4030    116.20    118.74    -23.43     25.72
   17.4132    116.30    118.93    -23.51     25.72
   17.4233    120.57    119.11    -19.42     25.71
   17.4335    117.40    119.29    -22.78     25.71
   17.4436    119.99    119.48    -20.37     25.71
   17.4538    119.80    119.66    -20.74     25.71
   17.4640    119.40    119.84    -21.33     25.71
   17.4741    120.80    120.03    -20.11     25.71
   17.4843    120.28    120.21    -20.81     25.71
   17.4945    120.69    120.40    -20.59     25.71
   17.5046    120.07    120.58    -21.40     25.71
   17.5148    121.33    120.77    -20.33     25.71
   17.5250    119.44    120.96    -22.41     25.71
   17.5351    120.66    121.15    -21.38     25.71
   17.5453    120.94    121.35    -21.29     25.71
   17.5555    120.48    121.55    -21.95     25.71
   17.5656    120.90    121.75    -21.73     25.71
   17.5758    124.91    121.95    -17.93     25.71
   17.5859    122.48    122.16    -20.56     25.70
   17.5961    122.90    122.37    -20.36     25.70
   17.6063    124.52    122.59    -18.96     25.70
   17.6164    124.45    122.82    -19.25     25.70
   17.6266    123.99    123.05    -19.94     25.70
   17.6368    124.95    123.29    -19.22     25.70
   17.6469    125.77    123.53    -18.64     25.70
   17.6571    125.63    123.78    -19.04     25.70
   17.6673    126.94    124.04    -17.99     25.70
   17.6774    125.85    124.31    -19.35     25.70
   17.6876    126.03    124.59    -19.45     25.70
   17.6978    128.52    124.88    -17.25     25.70
   17.7079    129.23    125.18    -16.84     25.70
   17.7181    126.62    125.50    -19.76     25.70
   17.7283    128.24    125.83    -18.47     25.70
   17.7384    127.68    126.16    -19.37     25.70
   17.7486    128.94    126.52    -18.46     25.70
   17.7587    129.76    126.89    -18.01     25.69
   17.7689    129.71    127.27    -18.45     25.69
   17.7791    130.46    127.68    -18.10     25.69
   17.7892    131.38    128.10    -17.60     25.69
   17.7994    131.89    128.54    -17.53     25.69
   17.8096    133.05    129.00    -16.83     25.69
   17.8197    132.21    129.47    -18.15     25.69
   17.8299    133.82    129.98    -17.04     25.69
   17.8401    134.18    130.50    -17.21     25.69
   17.8502    134.79    131.05    -17.14     25.69
   17.8604    135.91    131.62    -16.59     25.69
   17.8706    132.94    132.22    -20.16     25.69
   17.8807    135.28    132.84    -18.44     25.69
   17.8909    135.80    133.49    -18.58     25.69
   17.9010    136.82    134.17    -18.23     25.69
   17.9112    138.68    134.88    -17.08     25.69
   17.9214    137.24    135.62    -19.26     25.69
   17.9315    138.71    136.38    -18.55     25.68
   17.9417    140.19    137.18    -17.88     25.68
   17.9519    140.02    138.02    -18.88     25.68
   17.9620    139.30    138.88    -20.46     25.68
   17.9722    142.04    139.78    -18.63     25.68
   17.9824    144.23    140.72    -17.38     25.68
   17.9925    144.57    141.68    -18.00     25.68
   18.0027    145.10    142.69    -18.48     25.68
   18.0129    146.43    143.74    -18.19     25.68
   18.0230    146.88    144.81    -18.82     25.68
   18.0332    148.45    145.93    -18.37     25.68
   18.0434    147.92    147.09    -20.06     25.68
   18.0535    147.99    148.28    -21.17     25.68
   18.0637    150.77    149.51    -19.63     25.68
   18.0738    151.66    150.78    -20.00     25.68
   18.0840    150.98    152.09    -21.99     25.68
   18.0942    153.33    153.44    -20.99     25.68
   18.1043    153.66    154.81    -22.04     25.67
   18.1145    155.53    156.24    -21.59     25.67
   18.1247    158.29    157.71    -20.30     25.67
   18.1348    160.25    159.19    -19.83     25.67
   18.1450    156.30    160.73    -25.32     25.67
   18.1552    160.38    162.31    -22.81     25.67
   18.1653    160.42    163.90    -24.36     25.67
   18.1755    161.64    165.54    -24.79     25.67
   18.1857    163.20    167.22    -24.90     25.67
   18.1958    164.26    168.91    -25.53     25.67
   18.2060    165.16    170.65    -26.37     25.67
   18.2161    171.79    172.40    -21.49     25.67
   18.2263    169.48    174.19    -25.60     25.67
   18.2365    171.89    176.01    -25.01     25.67
   18.2466    175.99    177.84    -22.73     25.67
   18.2568    175.20    179.71    -25.39     25.67
   18.2670    176.28    181.59    -26.20     25.67
   18.2771    180.98    183.48    -23.38     25.66
   18.2873    181.24    185.40    -25.04     25.66
   18.2975    179.76    187.33    -28.46     25.66
   18.3076    186.63    189.26    -23.51     25.66
   18.3178    186.39    191.21    -25.71     25.66
   18.3280    187.30    193.17    -26.75     25.66
   18.3381    191.92    195.11    -24.07     25.66
   18.3483    191.85    197.07    -26.10     25.66
   18.3585    193.91    199.03    -26.00     25.66
   18.3686    198.34    200.96    -23.50     25.66
   18.3788    195.88    202.90    -27.90     25.66
   18.3889    200.10    204.81    -25.59     25.66
   18.3991    205.07    206.72    -22.53     25.66
   18.4093    206.73    208.61    -22.76     25.66
   18.4194    206.96    210.46    -24.39     25.66
   18.4296    212.28    212.31    -20.91     25.66
   18.4398    214.35    214.12    -20.65     25.66
   18.4499    212.17    215.89    -24.60     25.65
   18.4601    218.34    217.63    -20.18     25.65
   18.4703    220.17    219.34    -20.05     25.65
   18.4804    220.26    220.99    -21.61     25.65
   18.4906    223.65    222.61    -19.84     25.65
   18.5008    226.32    224.18    -18.74     25.65
   18.5109    224.41    225.68    -22.15     25.65
   18.5211    230.49    227.14    -17.54     25.65
   18.5312    230.74    228.53    -18.68     25.65
   18.5414    232.52    229.88    -18.24     25.65
   18.5516    232.69    231.16    -19.35     25.65
   18.5617    236.42    232.36    -16.82     25.65
   18.5719    239.99    233.50    -14.39     25.65
   18.5821    237.65    234.57    -17.81     25.65
   18.5922    239.51    235.56    -16.93     25.65
   18.6024    241.83    236.48    -15.53     25.65
   18.6126    242.60    237.32    -15.61     25.65
   18.6227    243.74    238.08    -15.22     25.64
   18.6329    245.32    238.76    -14.32     25.64
   18.6431    244.77    239.36    -15.47     25.64
   18.6532    246.51    239.87    -14.24     25.64
   18.6634    246.43    240.29    -14.75     25.64
   18.6736    246.81    240.63    -14.71     25.64
   18.6837    248.37    240.88    -13.40     25.64
   18.6939    245.75    241.05    -16.18     25.64
   18.7040    247.46    241.13    -14.55     25.64
   18.7142    249.98    241.11    -12.02     25.64
   18.7244    246.07    241.01    -15.83     25.64
   18.7345    247.16    240.83    -14.55     25.64
   18.7447    249.10    240.55    -12.33     25.64
   18.7549    246.21    240.18    -14.86     25.64
   18.7650    246.80    239.74    -13.82     25.64
   18.7752    242.71    239.20    -17.38     25.64
   18.7854    241.47    238.58    -18.00     25.63
   18.7955    239.55    237.89    -19.22     25.63
   18.8057    238.94    237.10    -19.05     25.63
   18.8159    240.85    236.24    -16.27     25.63
   18.8260    239.52    235.31    -16.67     25.63
   18.8362    235.66    234.29    -19.51     25.63
   18.8463    234.04    233.21    -20.06     25.63
   18.8565    233.32    232.05    -19.62     25.63
   18.8667    230.63    230.82    -21.08     25.63
   18.8768    229.54    229.54    -20.89     25.63
   18.8870    226.45    228.19    -22.62     25.63
   18.8972    227.58    226.77    -20.07     25.63
   18.9073    221.70    225.31    -24.50     25.63
   18.9175    221.67    223.79    -23.00     25.63
   18.9277    220.04    222.21    -23.05     25.63
   18.9378    216.45    220.60    -25.03     25.63
   18.9480    214.90    218.93    -24.92     25.63
   18.9582    209.80    217.22    -28.31     25.62
   18.9683    210.12    215.50    -26.26     25.62
   18.9785    206.76    213.72    -27.84     25.62
   18.9887    206.98    211.91    -25.81     25.62
   18.9988    201.10    210.09    -29.87     25.62
   19.0090    202.71    208.23    -26.40     25.62
   19.0191    203.53    206.37    -23.72     25.62
   19.0293    197.63    204.47    -27.73     25.62
   19.0395    196.59    202.56    -26.86     25.62
   19.0496    196.51    200.66    -25.04     25.62
   19.0598    190.61    198.74    -29.01     25.62
   19.0700    192.03    196.81    -25.66     25.62
   19.0801    188.72    194.90    -27.07     25.62
   19.0903    187.17    192.98    -26.69     25.62
   19.1005    185.26    191.06    -26.68     25.62
   19.1106    184.82    189.17    -25.23     25.62
   19.1208    180.61    187.27    -27.54     25.62
   19.1310    180.32    185.38    -25.95     25.61
   19.1411    179.03    183.53    -25.39     25.61
   19.1513    177.70    181.69    -24.87     25.61
   19.1614    177.49    179.88    -23.27     25.61
   19.1716    173.93    178.08    -25.03     25.61
   19.1818    173.60    176.30    -23.59     25.61
   19.1919    174.10    174.57    -21.36     25.61
   19.2021    171.99    172.86    -21.75     25.61
   19.2123    169.35    171.18    -22.71     25.61
   19.2224    166.89    169.54    -23.54     25.61
   19.2326    167.51    167.93    -21.30     25.61
   19.2428    166.48    166.35    -20.75     25.61
   19.2529    163.34    164.82    -22.37     25.61
   19.2631    162.49    163.32    -21.72     25.61
   19.2733    161.88    161.86    -20.87     25.61
   19.2834    161.99    160.46    -19.35     25.61
   19.2936    160.80    159.08    -19.16     25.61
   19.3038    159.01    157.74    -19.61     25.60
   19.3139    158.76    156.46    -18.58     25.60
   19.3241    157.32    155.21    -18.77     25.60
   19.3342    154.70    154.02    -20.20     25.60
   19.3444    156.90    152.85    -16.84     25.60
   19.3546    155.47    151.73    -17.15     25.60
   19.3647    154.11    150.67    -17.44     25.60
   19.3749    153.66    149.64    -16.86     25.60
   19.3851    152.74    148.65    -16.79     25.60
   19.3952    151.29    147.72    -17.31     25.60
   19.4054    152.18    146.81    -15.52     25.60
   19.4156    148.21    145.96    -18.63     25.60
   19.4257    148.92    145.15    -17.11     25.60
   19.4359    151.41    144.37    -13.85     25.60
   19.4461    147.57    143.64    -16.95     25.60
   19.4562    146.41    142.95    -17.42     25.60
   19.4664    149.68    142.29    -13.50     25.60
   19.4765    146.23    141.68    -16.34     25.59
   19.4867    145.58    141.11    -16.41     25.59
   19.4969    146.36    140.56    -15.09     25.59
   19.5070    145.20    140.06    -15.75     25.59
   19.5172    144.21    139.59    -16.27     25.59
   19.5274    144.23    139.16    -15.81     25.59
   19.5375    144.30    138.76    -15.34     25.59
   19.5477    141.27    138.38    -18.00     25.59
   19.5579    144.70    138.04    -14.23     25.59
   19.5680    143.56    137.74    -15.06     25.59
   19.5782    142.16    137.46    -16.18     25.59
   19.5884    142.15    137.20    -15.94     25.59
   19.5985    143.02    136.98    -14.84     25.59
   19.6087    142.09    136.78    -15.57     25.59
   19.6188    140.51    136.60    -16.98     25.59
   19.6290    138.77    136.45    -18.57     25.59
   19.6392    141.57    136.32    -15.64     25.59
   19.6493    138.55    136.22    -18.55     25.58
   19.6595    140.63    136.13    -16.38     25.58
   19.6697    140.34    136.06    -16.61     25.58
   19.6798    138.87    136.01    -18.03     25.58
   19.6900    139.25    135.98    -17.62     25.58
   19.7002    137.27    135.97    -19.58     25.58
   19.7103    137.51    135.97    -19.35     25.58
   19.7205    137.27    135.99    -19.60     25.58
   19.7307    136.91    136.02    -19.99     25.58
   19.7408    136.90    136.06    -20.05     25.58
   19.7510    138.57    136.12    -18.43     25.58
   19.7612    137.87    136.19    -19.20     25.58
   19.7713    138.10    136.26    -19.05     25.58
   19.7815    138.62    136.35    -18.62     25.58
   19.7916    136.48    136.45    -20.85     25.58
   19.8018    136.86    136.56    -20.58     25.58
   19.8120    137.38    136.67    -20.17     25.57
   19.8221    136.22    136.79    -21.45     25.57
   19.8323    137.10    136.91    -20.70     25.57
   19.8425    136.45    137.05    -21.48     25.57
   19.8526    134.12    137.18    -23.95     25.57
   19.8628    136.34    137.33    -21.87     25.57
   19.8730    136.30    137.47    -22.06     25.57
   19.8831    136.30    137.62    -22.20     25.57
   19.8933    133.92    137.77    -24.74     25.57
   19.9035    135.87    137.93    -22.94     25.57
   19.9136    134.90    138.08    -24.06     25.57
   19.9238    137.45    138.24    -21.67     25.57
   19.9339    135.57    138.40    -23.71     25.57
   19.9441    136.21    138.55    -23.23     25.57
   19.9543    134.01    138.71    -25.59     25.57
   19.9644    135.07    138.87    -24.68     25.57
   19.9746    135.63    139.03    -24.28     25.57
   19.9848    134.68    139.18    -25.39     25.56
   19.9949    135.95    139.34    -24.27     25.56
   20.0051    134.29    139.49    -26.08     25.56
   20.0153    135.60    139.64    -24.93     25.56
   20.0254    134.49    139.79    -26.18     25.56
   20.0356    135.83    139.93    -24.99     25.56
   20.0458    137.32    140.08    -23.64     25.56
   20.0559    135.49    140.22    -25.61     25.56
   20.0661    135.29    140.35    -25.95     25.56
   20.0763    135.91    140.48    -25.46     25.56
   20.0864    134.97    140.61    -26.52     25.56
   20.0966    136.54    140.73    -25.08     25.56
   20.1067    136.82    140.85    -24.92     25.56
   20.1169    136.36    140.97    -25.49     25.56
   20.1271    134.08    141.08    -27.88     25.56
   20.1372    136.79    141.18    -25.28     25.56
   20.1474    137.55    141.28    -24.62     25.56
   20.1576    136.48    141.38    -25.78     25.55
   20.1677    138.00    141.46    -24.35     25.55
   20.1779    135.82    141.55    -26.61     25.55
   20.1881    137.45    141.63    -25.06     25.55
   20.1982    137.98    141.70    -24.60     25.55
   20.2084    137.65    141.76    -25.00     25.55
   20.2186    137.03    141.82    -25.68     25.55
   20.2287    138.38    141.87    -24.38     25.55
   20.2389    138.94    141.92    -23.87     25.55
   20.2490    136.34    141.96    -26.51     25.55
   20.2592    138.14    142.00    -24.74     25.55
   20.2694    138.80    142.02    -24.11     25.55
   20.2795    136.98    142.04    -25.95     25.55
   20.2897    137.50    142.06    -25.44     25.55
   20.2999    136.96    142.07    -25.99     25.55
   20.3100    137.83    142.07    -25.12     25.55
   20.3202    140.52    142.06    -22.43     25.55
   20.3304    141.70    142.05    -21.23     25.54
   20.3405    138.37    142.03    -24.54     25.54
   20.3507    140.35    142.00    -22.54     25.54
   20.3609    139.77    141.97    -23.08     25.54
   20.3710    140.07    141.93    -22.74     25.54
   20.3812    141.40    141.88    -21.37     25.54
   20.3914    141.23    141.83    -21.48     25.54
   20.4015    139.71    141.77    -22.94     25.54
   20.4117    142.50    141.70    -20.08     25.54
   20.4218    139.72    141.62    -22.79     25.54
   20.4320    139.89    141.54    -22.54     25.54
   20.4422    142.37    141.45    -19.97     25.54
   20.4523    143.85    141.36    -18.39     25.54
   20.4625    141.40    141.25    -20.74     25.54
   20.4727    141.16    141.14    -20.87     25.54
   20.4828    142.87    141.03    -19.04     25.54
   20.4930    142.36    140.91    -19.43     25.54
   20.5032    142.67    140.78    -18.99     25.53
   20.5133    142.62    140.64    -18.91     25.53
   20.5235    141.63    140.50    -19.75     25.53
   20.5337    143.09    140.35    -18.14     25.53
   20.5438    143.02    140.20    -18.06     25.53
   20.5540    141.88    140.03    -19.04     25.53
   20.5641    140.63    139.87    -20.12     25.53
   20.5743    141.95    139.69    -18.63     25.53
   20.5845    141.00    139.51    -19.40     25.53
   20.5946    142.18    139.33    -18.03     25.53
   20.6048    143.57    139.14    -16.45     25.53
   20.6150    141.52    138.94    -18.30     25.53
   20.6251    141.60    138.74    -18.02     25.53
   20.6353    142.05    138.53    -17.36     25.53
   20.6455    143.49    138.32    -15.71     25.53
   20.6556    144.53    138.10    -14.45     25.53
   20.6658    142.04    137.87    -16.72     25.53
   20.6760    141.41    137.65    -17.12     25.52
   20.6861    143.14    137.41    -15.16     25.52
   20.6963    141.79    137.17    -16.27     25.52
   20.7065    141.33    136.93    -16.49     25.52
   20.7166    139.57    136.69    -18.00     25.52
   20.7268    140.68    136.44    -16.64     25.52
   20.7369    140.98    136.18    -16.09     25.52
   20.7471    139.77    135.92    -17.04     25.52
   20.7573    141.98    135.66    -14.56     25.52
   20.7674    139.33    135.40    -16.95     25.52
   20.7776    138.85    135.13    -17.16     25.52
   20.7878    140.77    134.85    -14.97     25.52
   20.7979    137.57    134.58    -17.89     25.52
   20.8081    138.70    134.30    -16.48     25.52
   20.8183    137.81    134.02    -17.09     25.52
   20.8284    136.46    133.74    -18.16     25.52
   20.8386    137.46    133.45    -16.88     25.52
   20.8488    136.98    133.16    -17.07     25.51
   20.8589    137.38    132.88    -16.38     25.51
   20.8691    135.23    132.59    -18.24     25.51
   20.8792    137.08    132.30    -16.10     25.51
   20.8894    135.65    132.00    -17.24     25.51
   20.8996    135.93    131.71    -16.66     25.51
   20.9097    135.20    131.42    -17.10     25.51
   20.9199    132.73    131.12    -19.28     25.51
   20.9301    133.21    130.83    -18.50     25.51
   20.9402    134.08    130.53    -17.34     25.51
   20.9504    131.95    130.24    -19.17     25.51
   20.9606    131.48    129.94    -19.35     25.51
   20.9707    131.76    129.65    -18.77     25.51
   20.9809    130.73    129.36    -19.51     25.51
   20.9911    132.38    129.07    -17.57     25.51
   21.0012    132.63    128.78    -17.03     25.51
   21.0114    129.75    128.49    -19.62     25.50
   21.0216    128.37    128.20    -20.72     25.50
   21.0317    131.23    127.92    -17.57     25.50
   21.0419    127.48    127.64    -21.04     25.50
   21.0520    130.04    127.36    -18.20     25.50
   21.0622    127.52    127.08    -20.45     25.50
   21.0724    127.02    126.81    -20.67     25.50
   21.0825    126.68    126.54    -20.75     25.50
   21.0927    127.80    126.27    -19.36     25.50
   21.1029    126.07    126.01    -20.83     25.50
   21.1130    125.57    125.76    -21.07     25.50
   21.1232    125.45    125.50    -20.94     25.50
   21.1334    124.25    125.25    -21.89     25.50
   21.1435    125.82    125.01    -20.07     25.50
   21.1537    124.53    124.77    -21.12     25.50
   21.1639    123.12    124.54    -22.30     25.50
   21.1740    124.16    124.31    -21.03     25.50
   21.1842    125.58    124.09    -19.39     25.49
   21.1943    122.16    123.87    -22.60     25.49
   21.2045    123.41    123.66    -21.14     25.49
   21.2147    122.72    123.46    -21.62     25.49
   21.2248    121.90    123.27    -22.25     25.49
   21.2350    121.87    123.08    -22.09     25.49
   21.2452    121.37    122.89    -22.41     25.49
   21.2553    120.95    122.72    -22.66     25.49
   21.2655    122.48    122.55    -20.96     25.49
   21.2757    122.15    122.40    -21.13     25.49
   21.2858    120.11    122.25    -23.02     25.49
   21.2960    121.63    122.10    -21.36     25.49
   21.3062    118.76    121.97    -24.09     25.49
   21.3163    120.54    121.85    -22.19     25.49
   21.3265    120.60    121.73    -22.01     25.49
   21.3366    119.76    121.63    -22.75     25.49
   21.3468    117.85    121.53    -24.56     25.49
   21.3570    119.25    121.44    -23.07     25.48
   21.3671    119.73    121.36    -22.52     25.48
   21.3773    118.36    121.30    -23.82     25.48
   21.3875    121.15    121.24    -20.97     25.48
   21.3976    120.48    121.19    -21.60     25.48
   21.4078    117.21    121.15    -24.83     25.48
   21.4180    119.77    121.13    -22.24     25.48
   21.4281    118.92    121.11    -23.08     25.48
   21.4383    116.41    121.11    -25.58     25.48
   21.4485    120.32    121.11    -21.68     25.48
   21.4586    118.73    121.13    -23.28     25.48
   21.4688    115.99    121.16    -26.05     25.48
   21.4790    119.12    121.20    -22.96     25.48
   21.4891    119.45    121.25    -22.68     25.48
   21.4993    117.62    121.31    -24.57     25.48
   21.5094    119.87    121.38    -22.40     25.48
   21.5196    117.76    121.47    -24.59     25.48
   21.5298    116.69    121.57    -25.76     25.47
   21.5399    116.85    121.67    -25.71     25.47
   21.5501    120.50    121.79    -22.18     25.47
   21.5603    119.09    121.92    -23.72     25.47
   21.5704    118.98    122.07    -23.97     25.47
   21.5806    120.28    122.22    -22.83     25.47
   21.5908    118.66    122.39    -24.61     25.47
   21.6009    119.33    122.57    -24.12     25.47
   21.6111    120.29    122.76    -23.35     25.47
   21.6213    118.02    122.96    -25.82     25.47
   21.6314    120.28    123.17    -23.77     25.47
   21.6416    120.15    123.39    -24.13     25.47
   21.6517    120.27    123.63    -24.24     25.47
   21.6619    121.71    123.87    -23.05     25.47
   21.6721    122.13    124.13    -22.89     25.47
   21.6822    121.48    124.40    -23.80     25.47
   21.6924    123.69    124.68    -21.87     25.47
   21.7026    122.65    124.97    -23.20     25.46
   21.7127    123.36    125.27    -22.79     25.46
   21.7229    123.12    125.58    -23.34     25.46
   21.7331    123.74    125.90    -23.04     25.46
   21.7432    122.83    126.23    -24.28     25.46
   21.7534    124.55    126.57    -22.90     25.46
   21.7636    127.14    126.92    -20.67     25.46
   21.7737    123.60    127.28    -24.56     25.46
   21.7839    126.99    127.65    -21.54     25.46
   21.7941    127.11    128.03    -21.80     25.46
   21.8042    127.41    128.41    -21.88     25.46
   21.8144    128.90    128.80    -20.79     25.46
   21.8245    127.22    129.20    -22.87     25.46
   21.8347    126.98    129.61    -23.52     25.46
   21.8449    130.24    130.03    -20.67     25.46
   21.8550    129.75    130.45    -21.58     25.46
   21.8652    129.45    130.88    -22.31     25.46
   21.8754    132.38    131.32    -19.82     25.45
   21.8855    132.52    131.75    -20.12     25.45
   21.8957    130.40    132.20    -22.69     25.45
   21.9059    133.82    132.66    -19.72     25.45
   21.9160    134.32    133.11    -19.67     25.45
   21.9262    132.79    133.57    -21.66     25.45
   21.9364    134.69    134.04    -20.23     25.45
   21.9465    135.23    134.50    -20.15     25.45
   21.9567    134.43    134.97    -21.43     25.45
   21.9668    136.17    135.44    -20.16     25.45
   21.9770    137.51    135.92    -19.29     25.45
   21.9872    135.57    136.40    -21.71     25.45
   21.9973    137.05    136.87    -20.70     25.45
   22.0075    136.59    137.35    -21.64     25.45
   22.0177    136.74    137.83    -21.97     25.45
   22.0278    138.10    138.30    -21.09     25.45
   22.0380    139.52    138.78    -20.15     25.45
   22.0482    140.43    139.26    -19.71     25.44
   22.0583    141.60    139.73    -19.01     25.44
   22.0685    142.57    140.20    -18.52     25.44
   22.0787    139.43    140.67    -22.12     25.44
   22.0888    142.24    141.13    -19.78     25.44
   22.0990    142.90    141.59    -19.58     25.44
   22.1092    143.38    142.05    -19.56     25.44
   22.1193    143.62    142.50    -19.76     25.44
   22.1295    143.49    142.95    -20.34     25.44
   22.1396    144.24    143.38    -20.03     25.44
   22.1498    145.95    143.82    -18.75     25.44
   22.1600    146.48    144.25    -18.65     25.44
   22.1701    145.16    144.66    -20.39     25.44
   22.1803    147.76    145.07    -18.20     25.44
   22.1905    146.83    145.48    -19.53     25.44
   22.2006    145.99    145.87    -20.76     25.44
   22.2108    149.78    146.25    -17.36     25.43
   22.2210    149.59    146.63    -17.92     25.43
   22.2311    147.40    146.99    -20.47     25.43
   22.2413    151.02    147.34    -17.21     25.43
   22.2515    151.04    147.68    -17.53     25.43
   22.2616    149.63    148.01    -19.27     25.43
   22.2718    151.23    148.33    -17.98     25.43
   22.2819    152.28    148.63    -17.23     25.43
   22.2921    151.29    148.92    -18.52     25.43
   22.3023    153.86    149.20    -16.22     25.43
   22.3124    154.75    149.46    -15.60     25.43
   22.3226    151.43    149.71    -19.17     25.43
   22.3328    153.56    149.95    -17.27     25.43
   22.3429    154.99    150.16    -16.06     25.43
   22.3531    154.47    150.37    -16.78     25.43
   22.3633    153.61    150.56    -17.83     25.43
   22.3734    154.37    150.73    -17.24     25.43
   22.3836    155.35    150.88    -16.42     25.42
   22.3938    153.92    151.02    -17.99     25.42
   22.4039    155.96    151.14    -16.07     25.42
   22.4141    155.05    151.25    -17.08     25.42
   22.4243    157.34    151.33    -14.88     25.42
   22.4344    156.62    151.40    -15.67     25.42
   22.4446    154.37    151.45    -17.97     25.42
   22.4547    154.77    151.49    -17.60     25.42
   22.4649    154.32    151.50    -18.07     25.42
   22.4751    154.05    151.50    -18.33     25.42
   22.4852    153.33    151.48    -19.03     25.42
   22.4954    154.56    151.44    -17.76     25.42
   22.5056    152.71    151.38    -19.55     25.42
   22.5157    154.15    151.30    -18.03     25.42
   22.5259    155.01    151.20    -17.07     25.42
   22.5361    152.37    151.08    -19.60     25.42
   22.5462    153.32    150.95    -18.51     25.42
   22.5564    154.69    150.79    -16.99     25.41
   22.5666    152.12    150.62    -19.38     25.41
   22.5767    152.75    150.43    -18.56     25.41
   22.5869    152.55    150.21    -18.55     25.41
   22.5970    151.95    149.98    -18.92     25.41
   22.6072    151.97    149.73    -18.65     25.41
   22.6174    150.18    149.47    -20.17     25.41
   22.6275    149.34    149.18    -20.72     25.41
   22.6377    149.05    148.87    -20.71     25.41
   22.6479    149.40    148.55    -20.03     25.41
   22.6580    147.43    148.21    -21.66     25.41
   22.6682    147.29    147.85    -21.44     25.41
   22.6784    146.76    147.47    -21.59     25.41
   22.6885    144.57    147.08    -23.39     25.41
   22.6987    147.10    146.66    -20.45     25.41
   22.7089    145.33    146.23    -21.79     25.41
   22.7190    143.72    145.79    -22.95     25.41
   22.7292    144.47    145.33    -21.74     25.40
   22.7394    144.62    144.85    -21.11     25.40
   22.7495    142.12    144.35    -23.12     25.40
   22.7597    141.69    143.84    -23.04     25.40
   22.7698    140.62    143.32    -23.58     25.40
   22.7800    140.22    142.78    -23.44     25.40
   22.7902    141.87    142.22    -21.24     25.40
   22.8003    139.61    141.66    -22.93     25.40
   22.8105    136.87    141.07    -25.09     25.40
   22.8207    137.82    140.47    -23.54     25.40
   22.8308    138.02    139.87    -22.73     25.40
   22.8410    136.09    139.25    -24.04     25.40
   22.8512    135.52    138.61    -23.97     25.40
   22.8613    135.33    137.97    -23.52     25.40
   22.8715    133.82    137.31    -24.37     25.40
   22.8817    132.88    136.64    -24.64     25.40
   22.8918    132.92    135.97    -23.93     25.40
   22.9020    131.77    135.28    -24.39     25.39
   22.9121    130.94    134.58    -24.53     25.39
   22.9223    132.40    133.87    -22.36     25.39
   22.9325    130.05    133.16    -23.99     25.39
   22.9426    130.31    132.44    -23.01     25.39
   22.9528    127.59    131.71    -25.00     25.39
   22.9630    126.95    130.97    -24.90     25.39
   22.9731    127.89    130.23    -23.22     25.39
   22.9833    125.39    129.47    -24.97     25.39
   22.9935    123.77    128.71    -25.83     25.39
   23.0036    124.05    127.96    -24.79     25.39
   23.0138    123.15    127.19    -24.92     25.39
   23.0240    124.98    126.41    -22.32     25.39
   23.0341    121.38    125.65    -25.15     25.39
   23.0443    121.62    124.86    -24.13     25.39
   23.0545    120.29    124.08    -24.67     25.39
   23.0646    118.51    123.30    -25.68     25.39
   23.0748    119.19    122.51    -24.21     25.38
   23.0849    117.57    121.73    -25.05     25.38
   23.0951    115.66    120.94    -26.16     25.38
   23.1053    117.15    120.15    -23.88     25.38
   23.1154    116.48    119.36    -23.77     25.38
   23.1256    116.46    118.57    -23.00     25.38
   23.1358    115.21    117.78    -23.46     25.38
   23.1459    113.95    117.00    -23.93     25.38
   23.1561    113.85    116.21    -23.24     25.38
   23.1663    112.93    115.42    -23.38     25.38
   23.1764    112.66    114.64    -22.87     25.38
   23.1866    110.62    113.86    -24.13     25.38
   23.1968    111.85    113.08    -22.11     25.38
   23.2069    111.25    112.31    -21.95     25.38
   23.2171    110.19    111.54    -22.23     25.38
   23.2272    110.34    110.78    -21.32     25.38
   23.2374    108.85    110.01    -22.04     25.37
   23.2476    108.13    109.25    -22.00     25.37
   23.2577    108.43    108.50    -20.95     25.37
   23.2679    106.78    107.75    -21.85     25.37
   23.2781    106.76    107.00    -21.13     25.37
   23.2882    105.32    106.27    -21.84     25.37
   23.2984    106.23    105.54    -20.19     25.37
   23.3086    104.57    104.81    -21.12     25.37
   23.3187    103.34    104.09    -21.64     25.37
   23.3289    102.30    103.38    -21.96     25.37
   23.3391    102.33    102.67    -21.23     25.37
   23.3492    101.41    101.98    -21.45     25.37
   23.3594    101.10    101.28    -21.07     25.37
   23.3695    101.05    100.60    -20.44     25.37
   23.3797    100.99     99.92    -19.82     25.37
   23.3899     98.29     99.25    -21.85     25.37
   23.4000     98.43     98.60    -21.05     25.37
   23.4102     99.05     97.94    -19.77     25.36
   23.4204     99.48     97.29    -18.70     25.36
   23.4305     98.40     96.66    -19.14     25.36
   23.4407     97.27     96.03    -19.64     25.36
   23.4509     97.74     95.41    -18.55     25.36
   23.4610     96.77     94.80    -18.91     25.36
   23.4712     95.26     94.19    -19.82     25.36
   23.4814     94.52     93.60    -19.96     25.36
   23.4915     94.43     93.02    -19.47     25.36
   23.5017     93.50     92.44    -19.82     25.36
   23.5119     93.59     91.87    -19.16     25.36
   23.5220     92.15     91.31    -20.04     25.36
   23.5322     93.59     90.76    -18.05     25.36
   23.5423     92.32     90.22    -18.78     25.36
   23.5525     93.48     89.68    -17.09     25.36
   23.5627     90.68     89.16    -19.36     25.36
   23.5728     91.43     88.65    -18.10     25.36
   23.5830     92.24     88.14    -16.78     25.35
   23.5932     89.74     87.64    -18.78     25.35
   23.6033     89.99     87.15    -18.05     25.35
   23.6135     90.70     86.67    -16.86     25.35
   23.6237     88.92     86.20    -18.16     25.35
   23.6338     87.07     85.74    -19.55     25.35
   23.6440     87.87     85.28    -18.30     25.35
   23.6542     87.57     84.83    -18.15     25.35
   23.6643     88.59     84.40    -16.69     25.35
   23.6745     86.65     83.97    -18.20     25.35
   23.6846     86.25     83.55    -18.18     25.35
   23.6948     86.34     83.13    -17.68     25.35
   23.7050     86.23     82.73    -17.38     25.35
   23.7151     84.19     82.33    -19.03     25.35
   23.7253     83.74     81.94    -19.09     25.35
   23.7355     85.74     81.56    -16.70     25.35
   23.7456     84.46     81.19    -17.61     25.35
   23.7558     82.61     80.82    -19.09     25.34
   23.7660     83.75     80.46    -17.59     25.34
   23.7761     82.70     80.11    -18.29     25.34
   23.7863     83.97     79.77    -16.68     25.34
   23.7965     82.86     79.43    -17.45     25.34
   23.8066     82.98     79.10    -17.00     25.34
   23.8168     81.72     78.77    -17.94     25.34
   23.8270     82.32     78.46    -17.02     25.34
   23.8371     81.25     78.15    -17.78     25.34
   23.8473     80.55     77.84    -18.18     25.34
   23.8574     80.15     77.55    -18.28     25.34
   23.8676     80.31     77.25    -17.83     25.34
   23.8778     79.89     76.97    -17.96     25.34
   23.8879     79.40     76.69    -18.17     25.34
   23.8981     79.34     76.42    -17.96     25.34
   23.9083     78.21     76.15    -18.82     25.34
   23.9184     79.32     75.89    -17.45     25.34
   23.9286     78.04     75.63    -18.47     25.33
   23.9388     80.15     75.38    -16.11     25.33
   23.9489     77.80     75.13    -18.22     25.33
   23.9591     78.14     74.89    -17.63     25.33
   23.9693     78.41     74.65    -17.13     25.33
   23.9794     76.25     74.42    -19.06     25.33
   23.9896     76.62     74.20    -18.46     25.33
   23.9997     75.34     73.97    -19.52     25.33
   24.0099     77.27     73.76    -17.37     25.33
   24.0201     75.33     73.54    -19.10     25.33
   24.0302     75.00     73.33    -19.22     25.33
   24.0404     75.87     73.13    -18.14     25.33
   24.0506     75.14     72.93    -18.67     25.33
   24.0607     75.45     72.73    -18.16     25.33
   24.0709     76.26     72.54    -17.16     25.33
   24.0811     73.65     72.34    -19.58     25.33
   24.0912     74.84     72.16    -18.20     25.33
   24.1014     74.71     71.98    -18.15     25.32
   24.1116     74.24     71.80    -18.44     25.32
   24.1217     74.03     71.62    -18.47     25.32
   24.1319     73.11     71.45    -19.22     25.32
   24.1421     74.16     71.27    -18.00     25.32
   24.1522     73.20     71.11    -18.79     25.32
   24.1624     71.89     70.94    -19.94     25.32
   24.1725     72.65     70.78    -19.02     25.32
   24.1827     72.07     70.62    -19.44     25.32
   24.1929     72.81     70.46    -18.54     25.32
   24.2030     72.34     70.31    -18.86     25.32
   24.2132     70.97     70.16    -20.07     25.32
   24.2234     71.43     70.01    -19.46     25.32
   24.2335     71.30     69.86    -19.45     25.32
   24.2437     70.82     69.72    -19.78     25.32
   24.2539     71.62     69.57    -18.84     25.32
   24.2640     71.51     69.43    -18.81     25.32
   24.2742     69.95     69.29    -20.23     25.31
   24.2844     69.68     69.16    -20.36     25.31
   24.2945     69.55     69.02    -20.35     25.31
   24.3047     69.16     68.89    -20.61     25.31
   24.3148     70.10     68.75    -19.54     25.31
   24.3250     69.26     68.62    -20.25     25.31
   24.3352     69.51     68.49    -19.87     25.31
   24.3453     69.12     68.37    -20.13     25.31
   24.3555     69.50     68.24    -19.63     25.31
   24.3657     70.57     68.12    -18.43     25.31
   24.3758     68.49     67.99    -20.39     25.31
   24.3860     68.12     67.87    -20.63     25.31
   24.3962     68.96     67.75    -19.67     25.31
   24.4063     67.24     67.63    -21.27     25.31
   24.4165     69.99     67.51    -18.41     25.31
   24.4267     68.28     67.39    -20.00     25.31
   24.4368     68.45     67.28    -19.71     25.30
   24.4470     68.60     67.16    -19.45     25.30
   24.4572     67.23     67.05    -20.70     25.30
   24.4673     67.85     66.93    -19.97     25.30
   24.4775     66.46     66.82    -21.25     25.30
   24.4876     67.54     66.71    -20.05     25.30
   24.4978     66.17     66.60    -21.31     25.30
   24.5080     67.59     66.49    -19.78     25.30
   24.5181     68.40     66.38    -18.86     25.30
   24.5283     67.43     66.27    -19.73     25.30
   24.5385     65.37     66.16    -21.68     25.30
   24.5486     66.03     66.06    -20.91     25.30
   24.5588     66.20     65.95    -20.63     25.30
   24.5690     66.10     65.84    -20.63     25.30
   24.5791     65.77     65.74    -20.85     25.30
   24.5893     65.41     65.64    -21.11     25.30
   24.5995     65.22     65.53    -21.20     25.30
   24.6096     65.44     65.43    -20.87     25.29
   24.6198     64.51     65.33    -21.70     25.29
   24.6299     65.24     65.22    -20.87     25.29
   24.6401     65.66     65.12    -20.35     25.29
   24.6503     65.54     65.02    -20.36     25.29
   24.6604     65.65     64.92    -20.15     25.29
   24.6706     65.47     64.82    -20.23     25.29
   24.6808     65.18     64.72    -20.42     25.29
   24.6909     65.53     64.62    -19.97     25.29
   24.7011     64.63     64.52    -20.78     25.29
   24.7113     65.41     64.42    -19.90     25.29
   24.7214     63.55     64.32    -21.66     25.29
   24.7316     64.95     64.23    -20.16     25.29
   24.7418     64.45     64.13    -20.56     25.29
   24.7519     64.51     64.03    -20.41     25.29
   24.7621     65.42     63.94    -19.40     25.29
   24.7723     64.59     63.84    -20.13     25.29
   24.7824     63.98     63.74    -20.65     25.28
   24.7926     63.43     63.65    -21.10     25.28
   24.8027     63.91     63.55    -20.53     25.28
   24.8129     63.54     63.46    -20.80     25.28
   24.8231     63.53     63.36    -20.72     25.28
   24.8332     62.84     63.27    -21.31     25.28
   24.8434     64.37     63.18    -19.69     25.28
   24.8536     63.56     63.08    -20.41     25.28
   24.8637     62.45     62.99    -21.42     25.28
   24.8739     63.04     62.90    -20.74     25.28
   24.8841     63.48     62.80    -20.21     25.28
   24.8942     62.83     62.71    -20.77     25.28
   24.9044     60.97     62.62    -22.53     25.28
   24.9146     62.44     62.53    -20.97     25.28
   24.9247     62.92     62.44    -20.40     25.28
   24.9349     62.49     62.34    -20.74     25.28
   24.9450     63.05     62.25    -20.09     25.28
   24.9552     61.68     62.16    -21.37     25.27
   24.9654     60.86     62.07    -22.10     25.27
   24.9755     61.95     61.98    -20.92     25.27
   24.9857     61.72     61.89    -21.06     25.27
   24.9959     60.90     61.80    -21.79     25.27
   25.0060     60.98     61.71    -21.62     25.27
   25.0162     60.95     61.63    -21.56     25.27
   25.0264     60.66     61.54    -21.76     25.27
   25.0365     63.07     61.45    -19.26     25.27
   25.0467     61.83     61.36    -20.41     25.27
   25.0569     61.87     61.27    -20.29     25.27
   25.0670     61.23     61.19    -20.84     25.27
   25.0772     60.74     61.10    -21.24     25.27
   25.0874     61.81     61.01    -20.09     25.27
   25.0975     61.16     60.92    -20.65     25.27
   25.1077     61.84     60.84    -19.88     25.27
   25.1178     60.90     60.75    -20.74     25.27
   25.1280     60.03     60.67    -21.52     25.26
   25.1382     60.71     60.58    -20.76     25.26
   25.1483     60.13     60.50    -21.25     25.26
   25.1585     60.70     60.41    -20.60     25.26
   25.1687     60.01     60.33    -21.20     25.26
   25.1788     60.39     60.24    -20.74     25.26
   25.1890     60.96     60.16    -20.08     25.26
   25.1992     60.07     60.07    -20.89     25.26
   25.2093     59.38     59.99    -21.50     25.26
   25.2195     60.56     59.91    -20.23     25.26
   25.2297     60.04     59.82    -20.67     25.26
   25.2398     61.00     59.74    -19.63     25.26
   25.2500     60.00     59.66    -20.54     25.26
   25.2601     59.23     59.58    -21.23     25.26
   25.2703     59.77     59.50    -20.61     25.26
   25.2805     58.93     59.42    -21.37     25.26
   25.2906     59.63     59.33    -20.59     25.26
   25.3008     59.33     59.25    -20.81     25.25
   25.3110     59.60     59.17    -20.46     25.25
   25.3211     58.92     59.09    -21.06     25.25
   25.3313     59.63     59.01    -20.27     25.25
   25.3415     59.07     58.93    -20.75     25.25
   25.3516     59.41     58.86    -20.33     25.25
   25.3618     59.63     58.78    -20.03     25.25
   25.3720     58.90     58.70    -20.68     25.25
   25.3821     59.55     58.62    -19.95     25.25
   25.3923     60.23     58.54    -19.20     25.25
   25.4024     58.67     58.46    -20.68     25.25
   25.4126     58.34     58.39    -20.93     25.25
   25.4228     57.46     58.31    -21.73     25.25
   25.4329     59.43     58.23    -19.69     25.25
   25.4431     59.42     58.16    -19.62     25.25
   25.4533     58.44     58.08    -20.53     25.25
   25.4634     57.07     58.01    -21.82     25.25
   25.4736     59.72     57.93    -19.10     25.24
   25.4838     58.18     57.86    -20.56     25.24
   25.4939     59.17     57.78    -19.50     25.24
   25.5041     58.26     57.71    -20.33     25.24
   25.5143     58.62     57.63    -19.90     25.24
   25.5244     58.93     57.56    -19.52     25.24
   25.5346     57.21     57.49    -21.16     25.24
   25.5448     58.36     57.42    -19.94     25.24
   25.5549     56.37     57.34    -21.86     25.24
   25.5651     57.29     57.27    -20.87     25.24
   25.5752     57.69     57.20    -20.39     25.24
   25.5854     58.38     57.13    -19.63     25.24
   25.5956     56.98     57.06    -20.96     25.24
   25.6057     57.41     56.99    -20.46     25.24
   25.6159     56.20     56.92    -21.60     25.24
   25.6261     57.38     56.85    -20.35     25.24
   25.6362     57.41     56.78    -20.25     25.23
   25.6464     57.30     56.71    -20.29     25.23
   25.6566     57.66     56.64    -19.86     25.23
   25.6667     57.00     56.57    -20.46     25.23
   25.6769     55.41     56.50    -21.98     25.23
   25.6871     56.98     56.44    -20.34     25.23
   25.6972     57.74     56.37    -19.51     25.23
   25.7074     57.46     56.30    -19.73     25.23
   25.7175     56.65     56.24    -20.47     25.23
   25.7277     57.30     56.17    -19.76     25.23
   25.7379     56.60     56.11    -20.39     25.23
   25.7480     57.07     56.04    -19.85     25.23
   25.7582     56.63     55.98    -20.23     25.23
   25.7684     56.85     55.91    -19.95     25.23
   25.7785     57.31     55.85    -19.42     25.23
   25.7887     57.41     55.78    -19.26     25.23
   25.7989     55.93     55.72    -20.67     25.23
   25.8090     57.30     55.66    -19.24     25.22
   25.8192     56.68     55.60    -19.80     25.22
   25.8294     55.62     55.53    -20.80     25.22
   25.8395     56.12     55.47    -20.24     25.22
   25.8497     56.21     55.41    -20.09     25.22
   25.8599     56.24     55.35    -19.99     25.22
   25.8700     56.55     55.29    -19.62     25.22
   25.8802     55.01     55.23    -21.10     25.22
   25.8903     55.96     55.17    -20.10     25.22
   25.9005     54.91     55.11    -21.09     25.22
   25.9107     55.23     55.05    -20.71     25.22
   25.9208     54.98     55.00    -20.90     25.22
   25.9310     56.20     54.94    -19.62     25.22
   25.9412     55.69     54.88    -20.07     25.22
   25.9513     55.42     54.82    -20.29     25.22
   25.9615     55.44     54.77    -20.21     25.22
   25.9717     54.65     54.71    -20.94     25.22
   25.9818     55.67     54.65    -19.87     25.21
   25.9920     55.73     54.60    -19.75     25.21
   26.0022     55.56     54.54    -19.87     25.21
   26.0123     55.38     54.49    -19.99     25.21
   26.0225     56.88     54.44    -18.44     25.21
   26.0326     54.46     54.38    -20.81     25.21
   26.0428     54.88     54.33    -20.33     25.21
   26.0530     54.68     54.28    -20.48     25.21
   26.0631     55.16     54.22    -19.95     25.21
   26.0733     54.19     54.17    -20.87     25.21
   26.0835     53.54     54.12    -21.47     25.21
   26.0936     54.64     54.07    -20.31     25.21
   26.1038     54.53     54.02    -20.37     25.21
   26.1140     54.04     53.97    -20.81     25.21
   26.1241     53.99     53.92    -20.81     25.21
   26.1343     54.60     53.87    -20.16     25.21
   26.1445     53.82     53.82    -20.89     25.21
   26.1546     52.99     53.77    -21.67     25.20
   26.1648     54.97     53.73    -19.64     25.20
   26.1750     55.34     53.68    -19.22     25.20
   26.1851     54.73     53.63    -19.79     25.20
   26.1953     54.02     53.59    -20.45     25.20
   26.2054     53.39     53.54    -21.03     25.20
   26.2156     54.54     53.49    -19.84     25.20
   26.2258     53.91     53.45    -20.42     25.20
   26.2359     53.97     53.40    -20.32     25.20
   26.2461     52.58     53.36    -21.66     25.20
   26.2563     54.14     53.32    -20.06     25.20
   26.2664     52.98     53.27    -21.18     25.20
   26.2766     53.70     53.23    -20.41     25.20
   26.2868     54.48     53.19    -19.59     25.20
   26.2969     53.54     53.15    -20.49     25.20
   26.3071     53.66     53.10    -20.33     25.20
   26.3173     52.88     53.06    -21.07     25.20
   26.3274     52.43     53.02    -21.48     25.19
   26.3376     54.04     52.98    -19.83     25.19
   26.3477     53.70     52.94    -20.13     25.19
   26.3579     53.81     52.90    -19.98     25.19
   26.3681     52.81     52.86    -20.94     25.19
   26.3782     52.42     52.82    -21.29     25.19
   26.3884     52.66     52.79    -21.01     25.19
   26.3986     52.59     52.75    -21.04     25.19
   26.4087     53.21     52.71    -20.39     25.19
   26.4189     54.15     52.67    -19.41     25.19
   26.4291     53.63     52.64    -19.89     25.19
   26.4392     53.49     52.60    -20.00     25.19
   26.4494     52.58     52.57    -20.87     25.19
   26.4596     52.68     52.53    -20.74     25.19
   26.4697     52.49     52.50    -20.89     25.19
   26.4799     52.74     52.46    -20.61     25.19
   26.4901     52.01     52.43    -21.30     25.19
   26.5002     52.99     52.40    -20.29     25.18
   26.5104     52.73     52.36    -20.52     25.18
   26.5205     53.10     52.33    -20.12     25.18
   26.5307     51.73     52.30    -21.45     25.18
   26.5409     52.01     52.27    -21.14     25.18
   26.5510     52.63     52.24    -20.49     25.18
   26.5612     51.63     52.21    -21.46     25.18
   26.5714     51.68     52.18    -21.38     25.18
   26.5815     52.47     52.15    -20.56     25.18
   26.5917     51.84     52.12    -21.16     25.18
   26.6019     52.68     52.09    -20.29     25.18
   26.6120     51.94     52.06    -21.00     25.18
   26.6222     51.60     52.03    -21.32     25.18
   26.6324     52.63     52.00    -20.26     25.18
   26.6425     51.62     51.98    -21.24     25.18
   26.6527     51.77     51.95    -21.06     25.18
   26.6628     53.30     51.92    -19.51     25.17
   26.6730     51.40     51.90    -21.38     25.17
   26.6832     52.49     51.87    -20.27     25.17
   26.6933     51.84     51.85    -20.89     25.17
   26.7035     51.50     51.82    -21.21     25.17
   26.7137     52.25     51.80    -20.43     25.17
   26.7238     51.05     51.78    -21.61     25.17
   26.7340     50.75     51.75    -21.89     25.17
   26.7442     52.25     51.73    -20.36     25.17
   26.7543     51.21     51.71    -21.38     25.17
   26.7645     52.07     51.68    -20.50     25.17
   26.7747     51.53     51.66    -21.02     25.17
   26.7848     51.12     51.64    -21.41     25.17
   26.7950     51.51     51.62    -20.99     25.17
   26.8052     52.20     51.60    -20.28     25.17
   26.8153     51.68     51.58    -20.78     25.17
   26.8255     50.52     51.56    -21.92     25.17
   26.8356     50.94     51.54    -21.49     25.16
   26.8458     50.80     51.52    -21.61     25.16
   26.8560     50.89     51.50    -21.50     25.16
   26.8661     50.97     51.49    -21.40     25.16
   26.8763     51.58     51.47    -20.77     25.16
   26.8865     51.16     51.45    -21.17     25.16
   26.8966     51.15     51.43    -21.17     25.16
   26.9068     50.56     51.42    -21.74     25.16
   26.9170     51.82     51.40    -20.47     25.16
   26.9271     51.24     51.39    -21.03     25.16
   26.9373     50.89     51.37    -21.36     25.16
   26.9475     50.86     51.36    -21.38     25.16
   26.9576     51.35     51.34    -20.88     25.16
   26.9678     50.87     51.33    -21.34     25.16
   26.9779     51.65     51.31    -20.55     25.16
   26.9881     50.92     51.30    -21.26     25.16
   26.9983     49.52     51.29    -22.65     25.16
   27.0084     51.60     51.28    -20.56     25.15
   27.0186     50.64     51.26    -21.51     25.15
   27.0288     50.27     51.25    -21.87     25.15
   27.0389     50.55     51.24    -21.57     25.15
   27.0491     51.62     51.23    -20.49     25.15
   27.0593     51.66     51.22    -20.44     25.15
   27.0694     51.73     51.21    -20.36     25.15
   27.0796     51.17     51.20    -20.91     25.15
   27.0898     50.23     51.19    -21.85     25.15
   27.0999     50.85     51.18    -21.22     25.15
   27.1101     50.88     51.18    -21.18     25.15
   27.1202     50.80     51.17    -21.25     25.15
   27.1304     50.63     51.16    -21.42     25.15
   27.1406     50.55     51.15    -21.49     25.15
   27.1507     49.87     51.15    -22.16     25.15
   27.1609     51.59     51.14    -20.44     25.15
   27.1711     51.47     51.14    -20.55     25.15
   27.1812     50.98     51.13    -21.04     25.14
   27.1914     50.55     51.13    -21.46     25.14
   27.2016     50.68     51.13    -21.33     25.14
   27.2117     50.13     51.12    -21.88     25.14
   27.2219     49.67     51.12    -22.34     25.14
   27.2321     49.85     51.12    -22.16     25.14
   27.2422     50.60     51.12    -21.40     25.14
   27.2524     51.09     51.12    -20.91     25.14
   27.2626     49.34     51.12    -22.67     25.14
   27.2727     50.64     51.12    -21.37     25.14
   27.2829     49.63     51.13    -22.38     25.14
   27.2930     49.26     51.13    -22.75     25.14
   27.3032     50.21     51.13    -21.81     25.14
   27.3134     49.05     51.14    -22.97     25.14
   27.3235     50.23     51.14    -21.80     25.14
   27.3337     49.75     51.15    -22.28     25.14
   27.3439     49.83     51.16    -22.21     25.14
   27.3540     50.80     51.17    -21.25     25.13
   27.3642     51.25     51.18    -20.81     25.13
   27.3744     51.39     51.19    -20.68     25.13
   27.3845     51.24     51.20    -20.84     25.13
   27.3947     49.89     51.21    -22.21     25.13
   27.4049     50.71     51.23    -21.40     25.13
   27.4150     50.59     51.24    -21.54     25.13
   27.4252     49.79     51.26    -22.35     25.13
   27.4353     50.15     51.28    -22.01     25.13
   27.4455     50.12     51.30    -22.06     25.13
   27.4557     49.85     51.32    -22.35     25.13
   27.4658     51.35     51.34    -20.88     25.13
   27.4760     51.38     51.37    -20.87     25.13
   27.4862     50.67     51.39    -21.61     25.13
   27.4963     50.46     51.42    -21.85     25.13
   27.5065     51.54     51.45    -20.80     25.13
   27.5167     51.33     51.48    -21.04     25.13
   27.5268     50.69     51.52    -21.71     25.12
   27.5370     51.87     51.55    -20.57     25.12
   27.5472     51.69     51.59    -20.79     25.12
   27.5573     51.04     51.63    -21.48     25.12
   27.5675     52.04     51.68    -20.52     25.12
   27.5777     51.68     51.72    -20.92     25.12
   27.5878     51.50     51.77    -21.15     25.12
   27.5980     51.91     51.82    -20.79     25.12
   27.6081     51.69     51.87    -21.06     25.12
   27.6183     51.49     51.93    -21.32     25.12
   27.6285     50.98     51.98    -21.89     25.12
   27.6386     52.26     52.04    -20.67     25.12
   27.6488     53.18     52.11    -19.81     25.12
   27.6590     53.38     52.18    -19.68     25.12
   27.6691     51.63     52.25    -21.50     25.12
   27.6793     52.16     52.32    -21.04     25.12
   27.6895     50.89     52.40    -22.39     25.12
   27.6996     53.41     52.48    -19.95     25.11
   27.7098     51.88     52.56    -21.56     25.11
   27.7200     52.08     52.65    -21.45     25.11
   27.7301     52.95     52.74    -20.67     25.11
   27.7403     52.02     52.83    -21.69     25.11
   27.7504     52.38     52.93    -21.43     25.11
   27.7606     52.94     53.03    -20.97     25.11
   27.7708     54.22     53.14    -19.80     25.11
   27.7809     53.13     53.24    -21.00     25.11
   27.7911     53.11     53.36    -21.13     25.11
   27.8013     52.26     53.47    -22.10     25.11
   27.8114     53.04     53.60    -21.44     25.11
   27.8216     52.69     53.72    -21.91     25.11
   27.8318     53.76     53.85    -20.97     25.11
   27.8419     53.44     53.98    -21.43     25.11
   27.8521     52.87     54.12    -22.13     25.11
   27.8623     54.09     54.26    -21.06     25.10
   27.8724     54.53     54.41    -20.76     25.10
   27.8826     54.46     54.56    -20.98     25.10
   27.8928     55.27     54.71    -20.33     25.10
   27.9029     56.23     54.87    -19.52     25.10
   27.9131     54.51     55.03    -21.41     25.10
   27.9232     55.69     55.20    -20.39     25.10
   27.9334     55.84     55.37    -20.41     25.10
   27.9436     55.47     55.54    -20.96     25.10
   27.9537     56.05     55.72    -20.55     25.10
   27.9639     55.96     55.90    -20.82     25.10
   27.9741     57.34     56.09    -19.63     25.10
   27.9842     55.49     56.27    -21.67     25.10
   27.9944     55.99     56.47    -21.36     25.10
   28.0046     56.55     56.66    -21.00     25.10
   28.0147     56.55     56.86    -21.19     25.10
   28.0249     56.79     57.06    -21.16     25.10
   28.0351     56.52     57.27    -21.63     25.09
   28.0452     57.10     57.47    -21.26     25.09
   28.0554     56.91     57.68    -21.66     25.09
   28.0655     57.45     57.90    -21.33     25.09
   28.0757     58.75     58.11    -20.25     25.09
   28.0859     58.34     58.33    -20.87     25.09
   28.0960     58.87     58.55    -20.56     25.09
   28.1062     58.12     58.77    -21.53     25.09
   28.1164     59.02     58.99    -20.85     25.09
   28.1265     58.70     59.21    -21.39     25.09
   28.1367     59.94     59.43    -20.38     25.09
   28.1469     59.59     59.66    -20.95     25.09
   28.1570     60.79     59.88    -19.98     25.09
   28.1672     59.44     60.11    -21.55     25.09
   28.1774     60.31     60.33    -20.91     25.09
   28.1875     59.66     60.55    -21.78     25.09
   28.1977     60.99     60.78    -20.67     25.09
   28.2079     61.13     61.00    -20.75     25.08
   28.2180     61.77     61.22    -20.33     25.08
   28.2282     60.76     61.44    -21.56     25.08
   28.2383     61.88     61.65    -20.66     25.08
   28.2485     62.26     61.87    -20.49     25.08
   28.2587     63.31     62.08    -19.65     25.08
   28.2688     62.96     62.28    -20.21     25.08
   28.2790     62.36     62.49    -21.01     25.08
   28.2892     63.46     62.69    -20.12     25.08
   28.2993     63.21     62.89    -20.56     25.08
   28.3095     64.76     63.08    -19.20     25.08
   28.3197     63.12     63.27    -21.03     25.08
   28.3298     63.15     63.45    -21.18     25.08
   28.3400     63.91     63.63    -20.60     25.08
   28.3502     62.95     63.80    -21.74     25.08
   28.3603     63.93     63.97    -20.92     25.08
   28.3705     64.81     64.13    -20.20     25.08
   28.3806     65.11     64.28    -20.05     25.07
   28.3908     65.54     64.43    -19.77     25.07
   28.4010     64.57     64.57    -20.88     25.07
   28.4111     65.05     64.70    -20.53     25.07
   28.4213     66.02     64.82    -19.69     25.07
   28.4315     65.65     64.94    -20.17     25.07
   28.4416     64.49     65.05    -21.44     25.07
   28.4518     65.98     65.15    -20.05     25.07
   28.4620     65.11     65.24    -21.01     25.07
   28.4721     65.16     65.32    -21.05     25.07
   28.4823     65.32     65.40    -20.96     25.07
   28.4925     64.74     65.46    -21.61     25.07
   28.5026     66.48     65.52    -19.92     25.07
   28.5128     65.84     65.56    -20.61     25.07
   28.5230     65.08     65.60    -21.40     25.07
   28.5331     66.62     65.63    -19.89     25.07
   28.5433     65.73     65.65    -20.80     25.07
   28.5534     65.03     65.65    -21.51     25.06
   28.5636     65.25     65.65    -21.29     25.06
   28.5738     66.09     65.64    -20.44     25.06
   28.5839     65.35     65.62    -21.16     25.06
   28.5941     66.91     65.59    -19.56     25.06
   28.6043     65.62     65.55    -20.81     25.06
   28.6144     64.39     65.50    -21.99     25.06
   28.6246     66.32     65.44    -20.00     25.06
   28.6348     65.82     65.37    -20.43     25.06
   28.6449     64.83     65.29    -21.35     25.06
   28.6551     64.31     65.20    -21.78     25.06
   28.6653     66.05     65.11    -19.94     25.06
   28.6754     64.30     65.00    -21.58     25.06
   28.6856     65.87     64.88    -19.90     25.06
   28.6957     65.82     64.76    -19.82     25.06
   28.7059     64.65     64.63    -20.86     25.06
   28.7161     64.81     64.48    -20.56     25.06
   28.7262     64.70     64.34    -20.52     25.05
   28.7364     64.05     64.18    -21.01     25.05
   28.7466     62.95     64.01    -21.94     25.05
   28.7567     62.18     63.84    -22.54     25.05
   28.7669     62.56     63.66    -21.98     25.05
   28.7771     62.71     63.47    -21.64     25.05
   28.7872     62.21     63.28    -21.95     25.05
   28.7974     63.05     63.08    -20.91     25.05
   28.8076     62.96     62.87    -20.79     25.05
   28.8177     61.79     62.66    -21.75     25.05
   28.8279     62.13     62.44    -21.19     25.05
   28.8381     61.71     62.21    -21.39     25.05
   28.8482     63.91     61.99    -18.96     25.05
   28.8584     61.41     61.75    -21.23     25.05
   28.8685     59.59     61.52    -22.81     25.05
   28.8787     60.82     61.27    -21.34     25.05
   28.8889     61.12     61.03    -20.79     25.05
   28.8990     60.57     60.78    -21.10     25.04
   28.9092     59.59     60.53    -21.82     25.04
   28.9194     59.86     60.27    -21.30     25.04
   28.9295     59.99     60.02    -20.91     25.04
   28.9397     59.05     59.76    -21.59     25.04
   28.9499     59.26     59.50    -21.12     25.04
   28.9600     58.98     59.24    -21.14     25.04
   28.9702     58.74     58.98    -21.12     25.04
   28.9804     58.45     58.71    -21.14     25.04
   28.9905     57.35     58.45    -21.98     25.04
   29.0007     57.81     58.18    -21.26     25.04
   29.0108     57.65     57.92    -21.15     25.04
   29.0210     57.39     57.65    -21.15     25.04
   29.0312     57.34     57.39    -20.93     25.04
   29.0413     57.08     57.13    -20.93     25.04
   29.0515     56.21     56.86    -21.54     25.04
   29.0617     57.25     56.60    -20.24     25.03
   29.0718     56.84     56.34    -20.39     25.03
   29.0820     55.48     56.09    -21.49     25.03
   29.0922     56.95     55.83    -19.76     25.03
   29.1023     56.96     55.58    -19.50     25.03
   29.1125     55.43     55.32    -20.78     25.03
   29.1227     55.97     55.07    -19.99     25.03
   29.1328     53.07     54.83    -22.64     25.03
   29.1430     54.71     54.58    -20.76     25.03
   29.1531     54.74     54.34    -20.49     25.03
   29.1633     54.03     54.10    -20.96     25.03
   29.1735     53.59     53.87    -21.16     25.03
   29.1836     54.08     53.64    -20.44     25.03
   29.1938     53.27     53.41    -21.02     25.03
   29.2040     52.81     53.18    -21.26     25.03
   29.2141     52.91     52.96    -20.94     25.03
   29.2243     52.16     52.74    -21.47     25.03
   29.2345     52.38     52.53    -21.03     25.02
   29.2446     53.45     52.32    -19.75     25.02
   29.2548     53.87     52.11    -19.12     25.02
   29.2650     52.19     51.90    -20.60     25.02
   29.2751     52.37     51.71    -20.22     25.02
   29.2853     50.87     51.51    -21.52     25.02
   29.2955     51.89     51.31    -20.31     25.02
   29.3056     51.92     51.13    -20.09     25.02
   29.3158     50.63     50.94    -21.20     25.02
   29.3259     50.53     50.76    -21.11     25.02
   29.3361     51.49     50.58    -19.98     25.02
   29.3463     49.96     50.41    -21.33     25.02
   29.3564     50.97     50.24    -20.15     25.02
   29.3666     50.14     50.07    -20.81     25.02
   29.3768     50.79     49.91    -20.00     25.02
   29.3869     50.40     49.75    -20.23     25.02
   29.3971     49.81     49.59    -20.66     25.02
   29.4073     49.78     49.44    -20.54     25.01
   29.4174     49.70     49.29    -20.47     25.01
   29.4276     50.08     49.14    -19.94     25.01
   29.4378     49.90     49.00    -19.98     25.01
   29.4479     48.82     48.86    -20.92     25.01
   29.4581     49.13     48.72    -20.47     25.01
   29.4682     48.07     48.58    -21.40     25.01
   29.4784     49.45     48.45    -19.89     25.01
   29.4886     48.57     48.32    -20.64     25.01
   29.4987     48.70     48.20    -20.38     25.01
   29.5089     48.18     48.07    -20.78     25.01
   29.5191     48.60     47.95    -20.24     25.01
   29.5292     47.23     47.83    -21.49     25.01
   29.5394     48.93     47.72    -19.67     25.01
   29.5496     48.20     47.60    -20.29     25.01
   29.5597     47.45     47.49    -20.92     25.01
   29.5699     47.62     47.38    -20.64     25.01
   29.5801     48.40     47.27    -19.76     25.00
   29.5902     47.50     47.17    -20.55     25.00
   29.6004     47.49     47.06    -20.46     25.00
   29.6106     47.21     46.96    -20.63     25.00
   29.6207     46.41     46.86    -21.33     25.00
   29.6309     46.44     46.76    -21.20     25.00
   29.6410     47.07     46.66    -20.48     25.00
   29.6512     46.38     46.57    -21.07     25.00
   29.6614     46.48     46.47    -20.88     25.00
   29.6715     46.88     46.38    -20.38     25.00
   29.6817     47.00     46.29    -20.17     25.00
   29.6919     45.70     46.20    -21.38     25.00
   29.7020     45.93     46.11    -21.06     25.00
   29.7122     45.74     46.02    -21.16     25.00
   29.7224     46.02     45.93    -20.80     25.00
   29.7325     45.95     45.85    -20.78     25.00
   29.7427     46.24     45.76    -20.40     25.00
   29.7529     45.96     45.67    -20.60     24.99
   29.7630     46.16     45.59    -20.32     24.99
   29.7732     45.84     45.51    -20.55     24.99
   29.7833     45.08     45.43    -21.23     24.99
   29.7935     46.27     45.34    -19.96     24.99
   29.8037     46.51     45.26    -19.64     24.99
   29.8138     45.59     45.18    -20.48     24.99
   29.8240     46.76     45.10    -19.23     24.99
   29.8342     45.39     45.02    -20.52     24.99
   29.8443     45.16     44.94    -20.67     24.99
   29.8545     45.14     44.86    -20.61     24.99
   29.8647     44.96     44.78    -20.71     24.99
   29.8748     44.34     44.71    -21.25     24.99
   29.8850     45.58     44.63    -19.93     24.99
   29.8952     45.12     44.55    -20.32     24.99
   29.9053     45.17     44.47    -20.19     24.99
   29.9155     44.42     44.40    -20.86     24.99
   29.9257     45.35     44.32    -19.85     24.98
   29.9358     44.83     44.24    -20.30     24.98
   29.9460     44.97     44.17    -20.08     24.98
   29.9561     44.66     44.09    -20.32     24.98
   29.9663     45.51     44.02    -19.39     24.98
   29.9765     45.09     43.94    -19.73     24.98
   29.9866     44.57     43.86    -20.18     24.98
   29.9968     44.22     43.79    -20.45     24.98
   30.0070     44.84     43.71    -19.76     24.98
   30.0171     44.51     43.64    -20.01     24.98
   30.0273     43.93     43.56    -20.52     24.98
   30.0375     42.76     43.49    -21.61     24.98
   30.0476     43.02     43.41    -21.27     24.98
   30.0578     45.18     43.34    -19.04     24.98
   30.0680     44.84     43.26    -19.30     24.98
   30.0781     44.06     43.19    -20.01     24.98
   30.0883     43.70     43.11    -20.29     24.97
   30.0984     43.71     43.04    -20.21     24.97
   30.1086     44.01     42.96    -19.83     24.97
   30.1188     43.92     42.88    -19.85     24.97
   30.1289     42.51     42.81    -21.18     24.97
   30.1391     42.94     42.73    -20.68     24.97
   30.1493     43.38     42.66    -20.16     24.97
   30.1594     42.99     42.58    -20.48     24.97
   30.1696     42.12     42.51    -21.27     24.97
   30.1798     43.49     42.43    -19.83     24.97
   30.1899     43.19     42.36    -20.05     24.97
   30.2001     42.34     42.28    -20.83     24.97
   30.2103     43.01     42.21    -20.08     24.97
   30.2204     42.63     42.14    -20.39     24.97
   30.2306     41.83     42.06    -21.11     24.97
   30.2408     41.82     41.99    -21.05     24.97
   30.2509     42.80     41.91    -19.99     24.97
   30.2611     42.80     41.84    -19.92     24.96
   30.2712     42.61     41.76    -20.04     24.96
   30.2814     41.34     41.69    -21.23     24.96
   30.2916     41.80     41.61    -20.70     24.96
   30.3017     41.05     41.54    -21.37     24.96
   30.3119     42.38     41.46    -19.97     24.96
   30.3221     41.79     41.39    -20.48     24.96
   30.3322     42.03     41.31    -20.17     24.96
   30.3424     41.27     41.24    -20.85     24.96
   30.3526     40.31     41.17    -21.74     24.96
   30.3627     41.80     41.09    -20.18     24.96
   30.3729     41.18     41.02    -20.72     24.96
   30.3831     40.62     40.94    -21.21     24.96
   30.3932     40.59     40.87    -21.16     24.96
   30.4034     42.16     40.80    -19.52     24.96
   30.4135     40.33     40.72    -21.28     24.96
   30.4237     41.40     40.65    -20.13     24.96
   30.4339     40.26     40.58    -21.20     24.95
   30.4440     40.10     40.50    -21.29     24.95
   30.4542     40.83     40.43    -20.48     24.95
   30.4644     40.55     40.36    -20.69     24.95
   30.4745     40.55     40.29    -20.62     24.95
   30.4847     39.46     40.21    -21.64     24.95
   30.4949     40.02     40.14    -21.00     24.95
   30.5050     39.42     40.07    -21.53     24.95
   30.5152     40.21     40.00    -20.67     24.95
   30.5254     39.73     39.92    -21.08     24.95
   30.5355     39.53     39.85    -21.21     24.95
   30.5457     40.69     39.78    -19.97     24.95
   30.5559     38.85     39.71    -21.74     24.95
   30.5660     39.66     39.64    -20.86     24.95
   30.5762     39.36     39.57    -21.09     24.95
   30.5863     39.59     39.50    -20.79     24.95
   30.5965     39.09     39.43    -21.22     24.95
   30.6067     38.87     39.36    -21.37     24.94
   30.6168     39.03     39.29    -21.14     24.94
   30.6270     39.45     39.22    -20.65     24.94
   30.6372     38.59     39.15    -21.44     24.94
   30.6473     38.90     39.08    -21.06     24.94
   30.6575     38.46     39.01    -21.43     24.94
   30.6677     37.43     38.94    -22.39     24.94
   30.6778     38.46     38.87    -21.29     24.94
   30.6880     37.52     38.80    -22.17     24.94
   30.6982     38.22     38.73    -21.40     24.94
   30.7083     38.73     38.67    -20.82     24.94
   30.7185     37.68     38.60    -21.80     24.94
   30.7286     39.30     38.53    -20.12     24.94
   30.7388     38.54     38.46    -20.81     24.94
   30.7490     37.13     38.40    -22.15     24.94
   30.7591     37.31     38.33    -21.91     24.94
   30.7693     37.43     38.27    -21.72     24.94
   30.7795     37.40     38.20    -21.68     24.93
   30.7896     38.70     38.13    -20.32     24.93
   30.7998     38.13     38.07    -20.82     24.93
   30.8100     36.68     38.00    -22.21     24.93
   30.8201     36.92     37.94    -21.91     24.93
   30.8303     37.02     37.88    -21.74     24.93
   30.8405     37.26     37.81    -21.44     24.93
   30.8506     37.54     37.75    -21.09     24.93
   30.8608     37.48     37.69    -21.09     24.93
   30.8710     37.46     37.62    -21.05     24.93
   30.8811     37.58     37.56    -20.87     24.93
   30.8913     37.52     37.50    -20.86     24.93
   30.9014     37.45     37.44    -20.87     24.93
   30.9116     37.41     37.38    -20.85     24.93
   30.9218     36.20     37.32    -22.00     24.93
   30.9319     36.71     37.26    -21.43     24.93
   30.9421     36.16     37.20    -21.92     24.93
   30.9523     36.68     37.14    -21.34     24.92
   30.9624     36.40     37.08    -21.56     24.92
   30.9726     36.38     37.02    -21.52     24.92
   30.9828     36.84     36.96    -21.01     24.92
   30.9929     35.80     36.90    -21.99     24.92
   31.0031     36.77     36.85    -20.96     24.92
   31.0133     36.61     36.79    -21.06     24.92
   31.0234     35.90     36.73    -21.72     24.92
   31.0336     36.65     36.68    -20.91     24.92
   31.0437     35.59     36.62    -21.91     24.92
   31.0539     35.09     36.57    -22.36     24.92
   31.0641     36.45     36.51    -20.94     24.92
   31.0742     35.75     36.46    -21.59     24.92
   31.0844     35.67     36.40    -21.62     24.92
   31.0946     35.55     36.35    -21.68     24.92
   31.1047     35.21     36.29    -21.97     24.92
   31.1149     35.82     36.24    -21.31     24.92
   31.1251     35.38     36.19    -21.69     24.91
   31.1352     35.75     36.14    -21.27     24.91
   31.1454     35.02     36.09    -21.95     24.91
   31.1556     35.77     36.04    -21.15     24.91
   31.1657     36.29     35.99    -20.58     24.91
   31.1759     35.15     35.94    -21.67     24.91
   31.1860     35.68     35.89    -21.09     24.91
   31.1962     35.86     35.84    -20.86     24.91
   31.2064     35.27     35.79    -21.40     24.91
   31.2165     34.65     35.74    -21.97     24.91
   31.2267     35.76     35.69    -20.82     24.91
   31.2369     35.04     35.65    -21.49     24.91
   31.2470     35.49     35.60    -20.99     24.91
   31.2572     35.23     35.55    -21.21     24.91
   31.2674     35.59     35.51    -20.80     24.91
   31.2775     35.60     35.46    -20.75     24.91
   31.2877     34.83     35.42    -21.47     24.90
   31.2979     35.30     35.37    -20.96     24.90
   31.3080     34.77     35.33    -21.44     24.90
   31.3182     34.60     35.28    -21.57     24.90
   31.3284     35.28     35.24    -20.85     24.90
   31.3385     35.11     35.20    -20.97     24.90
   31.3487     35.18     35.16    -20.86     24.90
   31.3588     34.55     35.12    -21.45     24.90
   31.3690     34.90     35.08    -21.06     24.90
   31.3792     35.79     35.03    -20.13     24.90
   31.3893     34.46     35.00    -21.42     24.90
   31.3995     33.91     34.96    -21.93     24.90
   31.4097     35.46     34.92    -20.34     24.90
   31.4198     34.92     34.88    -20.84     24.90
   31.4300     34.34     34.84    -21.38     24.90
   31.4402     34.78     34.80    -20.91     24.90
   31.4503     34.76     34.77    -20.89     24.90
   31.4605     34.26     34.73    -21.35     24.89
   31.4707     34.62     34.69    -20.96     24.89
   31.4808     34.27     34.66    -21.27     24.89
   31.4910     34.15     34.62    -21.36     24.89
   31.5011     35.41     34.59    -20.06     24.89
   31.5113     33.29     34.55    -22.15     24.89
   31.5215     34.29     34.52    -21.11     24.89
   31.5316     34.08     34.49    -21.29     24.89
   31.5418     33.73     34.45    -21.61     24.89
   31.5520     34.59     34.42    -20.71     24.89
   31.5621     34.76     34.39    -20.51     24.89
   31.5723     33.99     34.36    -21.25     24.89
   31.5825     34.97     34.33    -20.24     24.89
   31.5926     33.37     34.30    -21.81     24.89
   31.6028     34.38     34.27    -20.77     24.89
   31.6130     33.32     34.24    -21.80     24.89
   31.6231     33.51     34.21    -21.58     24.89
   31.6333     33.39     34.18    -21.67     24.88
   31.6435     33.41     34.15    -21.63     24.88
   31.6536     33.63     34.12    -21.38     24.88
   31.6638     34.48     34.10    -20.50     24.88
   31.6739     34.34     34.07    -20.61     24.88
   31.6841     35.18     34.04    -19.75     24.88
   31.6943     34.10     34.02    -20.80     24.88
   31.7044     33.74     33.99    -21.14     24.88
   31.7146     33.13     33.97    -21.72     24.88
   31.7248     33.53     33.94    -21.30     24.88
   31.7349     34.52     33.92    -20.28     24.88
   31.7451     33.57     33.89    -21.21     24.88
   31.7553     33.85     33.87    -20.90     24.88
   31.7654     33.38     33.85    -21.35     24.88
   31.7756     33.63     33.83    -21.08     24.88
   31.7858     33.64     33.80    -21.05     24.88
   31.7959     34.60     33.78    -20.07     24.88
   31.8061     33.43     33.76    -21.21     24.87
   31.8162     33.16     33.74    -21.46     24.87
   31.8264     33.60     33.72    -21.00     24.87
   31.8366     33.97     33.70    -20.61     24.87
   31.8467     33.54     33.68    -21.02     24.87
   31.8569     33.37     33.66    -21.17     24.87
   31.8671     33.70     33.64    -20.82     24.87
   31.8772     33.10     33.62    -21.41     24.87
   31.8874     33.82     33.60    -20.67     24.87
   31.8976     33.29     33.59    -21.18     24.87
   31.9077     33.73     33.57    -20.72     24.87
   31.9179     34.12     33.55    -20.32     24.87
   31.9281     33.27     33.53    -21.15     24.87
   31.9382     33.19     33.52    -21.21     24.87
   31.9484     32.51     33.50    -21.88     24.87
   31.9586     34.04     33.49    -20.33     24.87
   31.9687     33.63     33.47    -20.72     24.87
   31.9789     34.02     33.46    -20.32     24.86
   31.9890     33.10     33.44    -21.22     24.86
   31.9992     33.35     33.43    -20.96     24.86
   32.0094     34.05     33.41    -20.25     24.86
   32.0195     33.31     33.40    -20.97     24.86
   32.0297     33.58     33.38    -20.69     24.86
   32.0399     34.24     33.37    -20.02     24.86
   32.0500     33.68     33.36    -20.56     24.86
   32.0602     32.15     33.35    -22.08     24.86
   32.0704     34.35     33.33    -19.87     24.86
   32.0805     33.60     33.32    -20.61     24.86
   32.0907     32.62     33.31    -21.57     24.86
   32.1009     33.67     33.30    -20.51     24.86
   32.1110     33.97     33.29    -20.20     24.86
   32.1212     33.04     33.27    -21.12     24.86
   32.1313     32.51     33.26    -21.64     24.86
   32.1415     34.12     33.25    -20.02     24.86
   32.1517     32.45     33.24    -21.68     24.85
   32.1618     33.04     33.23    -21.08     24.85
   32.1720     33.67     33.22    -20.44     24.85
   32.1822     34.24     33.21    -19.86     24.85
   32.1923     33.73     33.20    -20.36     24.85
   32.2025     33.40     33.19    -20.68     24.85
   32.2127     33.45     33.18    -20.62     24.85
   32.2228     33.57     33.18    -20.49     24.85
   32.2330     33.12     33.17    -20.93     24.85
   32.2432     33.35     33.16    -20.69     24.85
   32.2533     33.16     33.15    -20.87     24.85
   32.2635     34.17     33.14    -19.86     24.85
   32.2737     33.54     33.13    -20.48     24.85
   32.2838     32.51     33.13    -21.50     24.85
   32.2940     32.79     33.12    -21.21     24.85
   32.3041     33.99     33.11    -20.00     24.85
   32.3143     34.06     33.10    -19.93     24.85
   32.3245     33.52     33.09    -20.46     24.84
   32.3346     32.59     33.09    -21.38     24.84
   32.3448     32.85     33.08    -21.11     24.84
   32.3550     32.77     33.07    -21.19     24.84
   32.3651     33.60     33.07    -20.35     24.84
   32.3753     33.57     33.06    -20.37     24.84
   32.3855     32.65     33.05    -21.29     24.84
   32.3956     33.23     33.04    -20.70     24.84
   32.4058     33.12     33.04    -20.80     24.84
   32.4160     32.91     33.03    -21.01     24.84
   32.4261     33.16     33.02    -20.75     24.84
   32.4363     33.17     33.02    -20.73     24.84
   32.4464     33.32     33.01    -20.58     24.84
   32.4566     32.88     33.01    -21.01     24.84
   32.4668     32.69     33.00    -21.19     24.84
   32.4769     33.45     32.99    -20.43     24.84
   32.4871     32.59     32.99    -21.28     24.83
   32.4973     33.46     32.98    -20.40     24.83
   32.5074     33.02     32.97    -20.84     24.83
   32.5176     32.64     32.97    -21.21     24.83
   32.5278     33.16     32.96    -20.68     24.83
   32.5379     33.01     32.95    -20.83     24.83
   32.5481     32.53     32.95    -21.30     24.83
   32.5583     33.07     32.94    -20.76     24.83
   32.5684     33.30     32.93    -20.52     24.83
   32.5786     32.85     32.93    -20.96     24.83
   32.5888     33.02     32.92    -20.79     24.83
   32.5989     33.11     32.92    -20.69     24.83
   32.6091     32.70     32.91    -21.09     24.83
   32.6192     32.65     32.90    -21.14     24.83
   32.6294     33.16     32.89    -20.62     24.83
   32.6396     32.71     32.89    -21.06     24.83
   32.6497     32.77     32.88    -21.00     24.83
   32.6599     32.54     32.87    -21.22     24.82
   32.6701     31.91     32.87    -21.84     24.82
   32.6802     33.24     32.86    -20.50     24.82
   32.6904     32.98     32.85    -20.76     24.82
   32.7006     33.24     32.85    -20.49     24.82
   32.7107     33.30     32.84    -20.42     24.82
   32.7209     32.58     32.83    -21.13     24.82
   32.7311     32.43     32.82    -21.28     24.82
   32.7412     32.60     32.81    -21.10     24.82
   32.7514     32.34     32.81    -21.35     24.82
   32.7615     32.52     32.80    -21.16     24.82
   32.7717     32.34     32.79    -21.33     24.82
   32.7819     32.47     32.78    -21.20     24.82
   32.7920     32.51     32.77    -21.15     24.82
   32.8022     33.63     32.77    -20.02     24.82
   32.8124     33.27     32.76    -20.37     24.82
   32.8225     33.33     32.75    -20.30     24.82
   32.8327     33.12     32.74    -20.50     24.81
   32.8429     32.84     32.73    -20.77     24.81
   32.8530     31.78     32.72    -21.82     24.81
   32.8632     32.31     32.71    -21.28     24.81
   32.8734     32.52     32.70    -21.06     24.81
   32.8835     32.50     32.69    -21.07     24.81
   32.8937     33.46     32.68    -20.10     24.81
   32.9039     32.70     32.67    -20.85     24.81
   32.9140     32.03     32.66    -21.51     24.81
   32.9242     32.29     32.65    -21.24     24.81
   32.9343     32.58     32.64    -20.94     24.81
   32.9445     32.23     32.63    -21.28     24.81
   32.9547     32.52     32.61    -20.98     24.81
   32.9648     33.60     32.60    -19.89     24.81
   32.9750     32.28     32.59    -21.19     24.81
   32.9852     32.93     32.58    -20.53     24.81
   32.9953     32.86     32.57    -20.59     24.81
   33.0055     31.93     32.55    -21.51     24.80
   33.0157     32.11     32.54    -21.31     24.80
   33.0258     32.88     32.53    -20.53     24.80
   33.0360     33.30     32.51    -20.10     24.80
   33.0462     33.52     32.50    -19.86     24.80
   33.0563     33.18     32.49    -20.19     24.80
   33.0665     33.12     32.47    -20.24     24.80
   33.0766     32.29     32.46    -21.05     24.80
   33.0868     32.90     32.44    -20.43     24.80
   33.0970     32.15     32.43    -21.16     24.80
   33.1071     34.07     32.41    -19.23     24.80
   33.1173     33.47     32.40    -19.81     24.80
   33.1275     33.18     32.38    -20.09     24.80
   33.1376     32.79     32.37    -20.46     24.80
   33.1478     32.92     32.35    -20.32     24.80
   33.1580     32.55     32.33    -20.67     24.80
   33.1681     32.37     32.32    -20.83     24.80
   33.1783     33.10     32.30    -20.09     24.79
   33.1885     32.85     32.28    -20.32     24.79
   33.1986     32.96     32.27    -20.19     24.79
   33.2088     32.77     32.25    -20.36     24.79
   33.2189     32.83     32.23    -20.29     24.79
   33.2291     32.75     32.21    -20.35     24.79
   33.2393     33.17     32.19    -19.91     24.79
   33.2494     32.41     32.18    -20.65     24.79
   33.2596     32.68     32.16    -20.36     24.79
   33.2698     33.78     32.14    -19.24     24.79
   33.2799     33.00     32.12    -20.00     24.79
   33.2901     33.58     32.10    -19.40     24.79
   33.3003     32.88     32.08    -20.08     24.79
   33.3104     33.11     32.06    -19.83     24.79
   33.3206     32.82     32.04    -20.10     24.79
   33.3308     32.64     32.02    -20.26     24.79
   33.3409     33.07     31.99    -19.81     24.79
   33.3511     33.38     31.97    -19.48     24.78
   33.3613     32.96     31.95    -19.87     24.78
   33.3714     33.51     31.93    -19.30     24.78
   33.3816     33.32     31.91    -19.47     24.78
   33.3917     32.74     31.88    -20.03     24.78
   33.4019     32.91     31.86    -19.83     24.78
   33.4121     33.27     31.84    -19.45     24.78
   33.4222     32.84     31.81    -19.86     24.78
   33.4324     33.65     31.79    -19.02     24.78
   33.4426     32.52     31.77    -20.13     24.78
   33.4527     34.15     31.74    -18.48     24.78
   33.4629     32.80     31.72    -19.80     24.78
   33.4731     32.55     31.69    -20.03     24.78
   33.4832     33.55     31.67    -19.00     24.78
   33.4934     33.30     31.64    -19.23     24.78
   33.5036     32.88     31.62    -19.62     24.78
   33.5137     33.07     31.59    -19.40     24.77
   33.5239     33.44     31.56    -19.01     24.77
   33.5340     32.51     31.54    -19.91     24.77
   33.5442     33.28     31.51    -19.12     24.77
   33.5544     32.62     31.48    -19.75     24.77
   33.5645     32.37     31.46    -19.97     24.77
   33.5747     33.06     31.43    -19.25     24.77
   33.5849     32.57     31.40    -19.72     24.77
   33.5950     32.54     31.37    -19.72     24.77
   33.6052     32.43     31.35    -19.80     24.77
   33.6154     32.84     31.32    -19.36     24.77
   33.6255     32.50     31.29    -19.67     24.77
   33.6357     31.71     31.26    -20.43     24.77
   33.6459     31.69     31.23    -20.42     24.77
   33.6560     30.93     31.20    -21.16     24.77
   33.6662     31.47     31.17    -20.59     24.77
   33.6764     32.43     31.14    -19.60     24.77
   33.6865     31.90     31.11    -20.10     24.76
   33.6967     31.73     31.08    -20.24     24.76
   33.7068     32.61     31.05    -19.33     24.76
   33.7170     32.48     31.02    -19.43     24.76
   33.7272     31.65     30.99    -20.22     24.76
   33.7373     31.43     30.96    -20.41     24.76
   33.7475     32.19     30.93    -19.62     24.76
   33.7577     31.40     30.90    -20.38     24.76
   33.7678     30.95     30.87    -20.80     24.76
   33.7780     31.45     30.83    -20.27     24.76
   33.7882     30.39     30.80    -21.30     24.76
   33.7983     31.11     30.77    -20.54     24.76
   33.8085     30.48     30.74    -21.14     24.76
   33.8187     30.59     30.70    -21.00     24.76
   33.8288     30.76     30.67    -20.80     24.76
   33.8390     30.35     30.64    -21.17     24.76
   33.8491     30.82     30.61    -20.67     24.76
   33.8593     30.68     30.57    -20.78     24.75
   33.8695     30.33     30.54    -21.09     24.75
   33.8796     30.13     30.51    -21.26     24.75
   33.8898     30.84     30.47    -20.52     24.75
   33.9000     29.72     30.44    -21.60     24.75
   33.9101     29.88     30.40    -21.41     24.75
   33.9203     29.71     30.37    -21.54     24.75
   33.9305     29.56     30.34    -21.66     24.75
   33.9406     29.52     30.30    -21.67     24.75
   33.9508     30.07     30.27    -21.08     24.75
   33.9610     30.02     30.23    -21.10     24.75
   33.9711     29.62     30.20    -21.46     24.75
   33.9813     29.83     30.16    -21.22     24.75
   33.9915     29.54     30.13    -21.47     24.75
   34.0016     29.08     30.09    -21.90     24.75
   34.0118     29.38     30.06    -21.56     24.75
   34.0219     29.73     30.02    -21.18     24.75
   34.0321     29.73     29.99    -21.14     24.74
   34.0423     29.50     29.95    -21.34     24.74
   34.0524     28.97     29.92    -21.83     24.74
   34.0626     29.40     29.88    -21.37     24.74
   34.0728     28.96     29.85    -21.77     24.74
   34.0829     28.96     29.81    -21.73     24.74
   34.0931     28.81     29.77    -21.85     24.74
   34.1033     28.45     29.74    -22.17     24.74
   34.1134     28.44     29.70    -22.15     24.74
   34.1236     28.93     29.67    -21.62     24.74
   34.1338     28.91     29.63    -21.60     24.74
   34.1439     28.30     29.59    -22.18     24.74
   34.1541     28.76     29.56    -21.68     24.74
   34.1642     28.93     29.52    -21.48     24.74
   34.1744     28.80     29.49    -21.57     24.74
   34.1846     28.21     29.45    -22.12     24.74
   34.1947     28.46     29.41    -21.84     24.74
   34.2049     29.16     29.38    -21.10     24.73
   34.2151     28.19     29.34    -22.03     24.73
   34.2252     28.65     29.30    -21.54     24.73
   34.2354     27.92     29.27    -22.23     24.73
   34.2456     28.39     29.23    -21.73     24.73
   34.2557     28.19     29.20    -21.89     24.73
   34.2659     29.33     29.16    -20.71     24.73
   34.2761     28.31     29.12    -21.70     24.73
   34.2862     27.52     29.09    -22.45     24.73
   34.2964     27.77     29.05    -22.17     24.73
   34.3066     28.02     29.01    -21.88     24.73
   34.3167     28.04     28.98    -21.82     24.73
   34.3269     26.97     28.94    -22.86     24.73
   34.3370     27.13     28.91    -22.66     24.73
   34.3472     28.47     28.87    -21.28     24.73
   34.3574     27.46     28.83    -22.26     24.73
   34.3675     28.02     28.80    -21.66     24.73
   34.3777     27.01     28.76    -22.64     24.72
   34.3879     27.08     28.73    -22.53     24.72
   34.3980     27.96     28.69    -21.62     24.72
   34.4082     28.09     28.66    -21.45     24.72
   34.4184     26.88     28.62    -22.62     24.72
   34.4285     27.32     28.58    -22.15     24.72
   34.4387     27.58     28.55    -21.85     24.72
   34.4489     27.93     28.51    -21.47     24.72
   34.4590     27.65     28.48    -21.71     24.72
   34.4692     26.96     28.44    -22.37     24.72
   34.4793     27.20     28.41    -22.09     24.72
   34.4895     27.79     28.37    -21.47     24.72
   34.4997     27.17     28.34    -22.05     24.72
   34.5098     27.18     28.30    -22.01     24.72
   34.5200     26.39     28.27    -22.76     24.72
   34.5302     27.45     28.23    -21.67     24.72
   34.5403     27.70     28.20    -21.38     24.72
   34.5505     27.60     28.16    -21.45     24.71
   34.5607     27.76     28.13    -21.25     24.71
   34.5708     26.71     28.10    -22.27     24.71
   34.5810     26.45     28.06    -22.49     24.71
   34.5912     27.49     28.03    -21.42     24.71
   34.6013     26.55     27.99    -22.33     24.71
   34.6115     27.40     27.96    -21.44     24.71
   34.6217     26.84     27.93    -21.97     24.71
   34.6318     26.60     27.89    -22.18     24.71
   34.6420     27.66     27.86    -21.08     24.71
   34.6521     27.53     27.83    -21.18     24.71
   34.6623     27.10     27.79    -21.58     24.71
   34.6725     26.47     27.76    -22.17     24.71
   34.6826     27.63     27.73    -20.98     24.71
   34.6928     26.59     27.69    -21.99     24.71
   34.7030     27.83     27.66    -20.72     24.71
   34.7131     27.01     27.63    -21.50     24.70
   34.7233     26.94     27.60    -21.54     24.70
   34.7335     27.04     27.56    -21.41     24.70
   34.7436     27.18     27.53    -21.24     24.70
   34.7538     26.37     27.50    -22.02     24.70
   34.7640     27.29     27.47    -21.06     24.70
   34.7741     26.43     27.44    -21.89     24.70
   34.7843     26.35     27.41    -21.94     24.70
   34.7944     27.36     27.38    -20.90     24.70
   34.8046     26.95     27.35    -21.28     24.70
   34.8148     26.82     27.31    -21.38     24.70
   34.8249     25.87     27.28    -22.30     24.70
   34.8351     26.73     27.25    -21.41     24.70
   34.8453     26.20     27.22    -21.91     24.70
   34.8554     26.77     27.19    -21.31     24.70
   34.8656     27.15     27.16    -20.90     24.70
   34.8758     27.27     27.13    -20.75     24.70
   34.8859     25.98     27.11    -22.01     24.69
   34.8961     26.74     27.08    -21.22     24.69
   34.9063     26.16     27.05    -21.77     24.69
   34.9164     25.91     27.02    -21.99     24.69
   34.9266     25.88     26.99    -21.99     24.69
   34.9367     26.91     26.96    -20.94     24.69
   34.9469     27.01     26.93    -20.81     24.69
   34.9571     26.74     26.91    -21.05     24.69
   34.9672     26.18     26.88    -21.58     24.69
   34.9774     26.49     26.85    -21.24     24.69
   34.9876     26.36     26.82    -21.35     24.69
   34.9977     26.65     26.80    -21.03     24.69
   35.0079     26.93     26.77    -20.72     24.69
   35.0181     27.29     26.74    -20.34     24.69
   35.0282     25.96     26.72    -21.64     24.69
   35.0384     26.05     26.69    -21.52     24.69
   35.0486     26.10     26.66    -21.45     24.69
   35.0587     26.08     26.64    -21.44     24.68
   35.0689     26.05     26.61    -21.44     24.68
   35.0791     26.18     26.58    -21.29     24.68
   35.0892     26.27     26.56    -21.17     24.68
   35.0994     26.35     26.53    -21.07     24.68
   35.1095     26.31     26.51    -21.08     24.68
   35.1197     26.03     26.48    -21.34     24.68
   35.1299     26.47     26.46    -20.87     24.68
   35.1400     26.26     26.44    -21.06     24.68
   35.1502     26.10     26.41    -21.20     24.68
   35.1604     26.37     26.39    -20.90     24.68
   35.1705     26.23     26.36    -21.02     24.68
   35.1807     25.99     26.34    -21.23     24.68
   35.1909     25.87     26.32    -21.33     24.68
   35.2010     26.82     26.29    -20.36     24.68
   35.2112     26.01     26.27    -21.15     24.68
   35.2214     25.24     26.25    -21.89     24.68
   35.2315     26.27     26.23    -20.84     24.67
   35.2417     26.17     26.20    -20.92     24.67
   35.2518     26.58     26.18    -20.49     24.67
   35.2620     25.67     26.16    -21.37     24.67
   35.2722     25.62     26.14    -21.40     24.67
   35.2823     26.27     26.12    -20.73     24.67
   35.2925     25.73     26.10    -21.25     24.67
   35.3027     26.38     26.08    -20.58     24.67
   35.3128     26.02     26.06    -20.92     24.67
   35.3230     25.77     26.03    -21.15     24.67
   35.3332     25.73     26.01    -21.17     24.67
   35.3433     25.05     25.99    -21.83     24.67
   35.3535     25.93     25.97    -20.93     24.67
   35.3637     26.07     25.95    -20.77     24.67
   35.3738     26.10     25.93    -20.72     24.67
   35.3840     25.99     25.92    -20.81     24.67
   35.3942     26.44     25.90    -20.34     24.67
   35.4043     25.83     25.88    -20.93     24.66
   35.4145     25.98     25.86    -20.76     24.66
   35.4246     26.74     25.84    -19.98     24.66
   35.4348     25.93     25.82    -20.78     24.66
   35.4450     26.43     25.80    -20.26     24.66
   35.4551     26.13     25.79    -20.54     24.66
   35.4653     25.90     25.77    -20.75     24.66
   35.4755     26.46     25.75    -20.18     24.66
   35.4856     25.46     25.73    -21.16     24.66
   35.4958     25.26     25.72    -21.34     24.66
   35.5060     25.36     25.70    -21.22     24.66
   35.5161     25.79     25.68    -20.78     24.66
   35.5263     25.74     25.67    -20.81     24.66
   35.5365     26.13     25.65    -20.40     24.66
   35.5466     25.57     25.63    -20.95     24.66
   35.5568     25.66     25.62    -20.84     24.66
   35.5669     25.73     25.60    -20.76     24.66
   35.5771     25.93     25.59    -20.54     24.65
   35.5873     25.68     25.57    -20.78     24.65
   35.5974     26.41     25.56    -20.03     24.65
   35.6076     25.20     25.54    -21.23     24.65
   35.6178     25.49     25.53    -20.92     24.65
   35.6279     25.58     25.51    -20.82     24.65
   35.6381     25.38     25.50    -21.00     24.65
   35.6483     25.35     25.48    -21.02     24.65
   35.6584     25.77     25.47    -20.58     24.65
   35.6686     25.72     25.46    -20.62     24.65
   35.6788     26.15     25.44    -20.18     24.65
   35.6889     25.84     25.43    -20.47     24.65
   35.6991     25.10     25.41    -21.20     24.65
   35.7093     24.97     25.40    -21.32     24.65
   35.7194     25.12     25.39    -21.15     24.65
   35.7296     25.37     25.38    -20.89     24.65
   35.7397     25.24     25.36    -21.01     24.65
   35.7499     25.67     25.35    -20.56     24.64
   35.7601     25.47     25.34    -20.75     24.64
   35.7702     25.12     25.33    -21.09     24.64
   35.7804     25.05     25.31    -21.15     24.64
   35.7906     25.49     25.30    -20.70     24.64
   35.8007     25.69     25.29    -20.48     24.64
   35.8109     25.55     25.28    -20.61     24.64
   35.8211     25.26     25.27    -20.89     24.64
   35.8312     25.42     25.26    -20.72     24.64
   35.8414     26.26     25.24    -19.87     24.64
   35.8516     25.30     25.23    -20.82     24.64
   35.8617     25.07     25.22    -21.04     24.64
   35.8719     25.55     25.21    -20.55     24.64
   35.8820     25.48     25.20    -20.61     24.64
   35.8922     24.98     25.19    -21.09     24.64
   35.9024     24.95     25.18    -21.11     24.64
   35.9125     25.08     25.17    -20.97     24.63
   35.9227     25.68     25.16    -20.36     24.63
   35.9329     25.43     25.15    -20.60     24.63
   35.9430     25.46     25.14    -20.57     24.63
   35.9532     25.05     25.13    -20.97     24.63
   35.9634     25.64     25.12    -20.37     24.63
   35.9735     25.13     25.11    -20.87     24.63
   35.9837     25.30     25.10    -20.69     24.63
   35.9939     25.68     25.09    -20.30     24.63
   36.0040     25.31     25.09    -20.66     24.63
   36.0142     25.49     25.08    -20.47     24.63
   36.0244     25.42     25.07    -20.53     24.63
   36.0345     25.65     25.06    -20.29     24.63
   36.0447     25.29     25.05    -20.65     24.63
   36.0548     25.26     25.04    -20.67     24.63
   36.0650     25.34     25.04    -20.58     24.63
   36.0752     24.52     25.03    -21.39     24.63
   36.0853     24.60     25.02    -21.30     24.62
   36.0955     25.74     25.01    -20.16     24.62
   36.1057     24.67     25.00    -21.22     24.62
   36.1158     25.66     25.00    -20.22     24.62
   36.1260     26.08     24.99    -19.79     24.62
   36.1362     25.57     24.98    -20.30     24.62
   36.1463     25.39     24.97    -20.47     24.62
